VAMAS Surface Chemical Analysis Standard Data Transfer Format 1988 May 4
Not Specified
Not Specified
Not Specified
Not Specified
12
Casa Info Follows CasaXPS Version 2.3.23rev1.0Y
0
Created by SpecsLab Prodigy, Version 4.55.1-r82379 
SourceAnalyserAngle: 56.500000 d
CasaRowLabel:Ti metal lineshape
CasaRowLabel:TiO lineshape
CasaRowLabel:Ti2O3 lineshape
CasaRowLabel:TiO2 lineshape
CasaRowLabel:Ti metal fit
CasaRowLabel:TiO fit
CasaRowLabel:Ti2O3 fit
CasaRowLabel:TiO2 fit
NORM
IRREGULAR
1
1
Exp Variable
d
0
0
0
0
8
&Ti_met
Ti metal lineshape
0
0
0
0
0
0
0
10
Casa Info Follows
0
0
0
0

PCA Coefs = 54487.5, 23477.3, -4356.52, 108.165, 
PCA Coefs = 54487.5, 23477.3, -4356.52, 108.165, -1011.67, 
c:\users\mark\owncloud\muelheim group\projects\tio2\analyzed data\experiment 2019-03-28_ti sheet_cec-1303 - vector analysis.vms
C:\Users\pielsticker\Downloads\Ti\EX209_CEC303 Ti slow oxidation - vectro fit - irregular.vms
XPS
1e+037
Al
1486.61
1e+037
1e+037
1e+037
1e+037
1e+037
FAT
1e+037
1e+037
1e+037
1e+037
1e+037
1e+037
1e+037
1e+037
Ti
2p
-1
3
Kinetic Energy
eV
Intensity
d
transmission
d
pulse counting
1
1
1e+037
1e+037
1e+037
1e+037
3
MFP Exponent
d
0
ESCAPE DEPTH TYPE
d
1
PROPAGATION_CONVERGED
d
1
2406
0
1
0
1
0
1
986.61
1380.79
1
986.71
1379.61
1
986.81
1342.46
1
986.91
1357.98
1
987.01
1384.78
1
987.11
1338.23
1
987.21
1302.73
1
987.31
1369.8
1
987.41
1340.63
1
987.51
1326.81
1
987.61
1308.49
1
987.71
1297.46
1
987.81
1366.09
1
987.91
1417.54
1
988.01
1429.56
1
988.11
1338.43
1
988.21
1307.35
1
988.31
1331.1
1
988.41
1342.77
1
988.51
1352.87
1
988.61
1334.16
1
988.71
1322.33
1
988.81
1336.04
1
988.91
1337.25
1
989.01
1291.69
1
989.11
1331.42
1
989.21
1362.36
1
989.31
1367.73
1
989.41
1321.77
1
989.51
1331.19
1
989.61
1337.59
1
989.71
1354.37
1
989.81
1337.41
1
989.91
1414.58
1
990.01
1375.48
1
990.11
1329.94
1
990.21
1340.48
1
990.31
1299.66
1
990.41
1329.48
1
990.51
1336.35
1
990.61
1374.2
1
990.71
1329.05
1
990.81
1364.6
1
990.91
1275.77
1
991.01
1403.71
1
991.11
1391.23
1
991.21
1385.94
1
991.31
1408.94
1
991.41
1378.4
1
991.51
1311.37
1
991.61
1388.73
1
991.71
1357.91
1
991.81
1398.56
1
991.91
1318.21
1
992.01
1324.53
1
992.11
1390.02
1
992.21
1299.01
1
992.31
1376.27
1
992.41
1368.45
1
992.51
1384.67
1
992.61
1327.26
1
992.71
1345.15
1
992.81
1363.08
1
992.91
1365.75
1
993.01
1307.44
1
993.11
1363.56
1
993.21
1293.28
1
993.31
1339.81
1
993.41
1331.02
1
993.51
1325.31
1
993.61
1339.19
1
993.71
1382.03
1
993.81
1270.13
1
993.91
1311.58
1
994.01
1363.6
1
994.11
1378.17
1
994.21
1289.73
1
994.31
1438.27
1
994.41
1295.38
1
994.51
1371.09
1
994.61
1381.04
1
994.71
1391.69
1
994.81
1354.23
1
994.91
1386.57
1
995.01
1303.35
1
995.11
1321.43
1
995.21
1369.64
1
995.31
1438.72
1
995.41
1409.51
1
995.51
1401.62
1
995.61
1421.9
1
995.71
1412.13
1
995.81
1429.47
1
995.91
1360.03
1
996.01
1401.67
1
996.11
1377.03
1
996.21
1353.26
1
996.31
1442.57
1
996.41
1318.8
1
996.51
1292.64
1
996.61
1475.21
1
996.71
1394.63
1
996.81
1382.38
1
996.91
1497.62
1
997.01
1445.13
1
997.11
1444.74
1
997.21
1423.46
1
997.31
1449.53
1
997.41
1437.41
1
997.51
1436.63
1
997.61
1459.79
1
997.71
1452.47
1
997.81
1374.02
1
997.91
1365.02
1
998.01
1425.56
1
998.11
1477.99
1
998.21
1395.59
1
998.31
1349.93
1
998.41
1406.85
1
998.51
1442.93
1
998.61
1426.26
1
998.71
1425.03
1
998.81
1448.98
1
998.91
1417.89
1
999.01
1363.7
1
999.11
1357.04
1
999.21
1372.19
1
999.31
1451.86
1
999.41
1440.96
1
999.51
1447.06
1
999.61
1472.97
1
999.71
1420.74
1
999.81
1469.9
1
999.91
1469.79
1
1000.01
1410.93
1
1000.11
1469.51
1
1000.21
1427.66
1
1000.31
1474.49
1
1000.41
1484.39
1
1000.51
1499.16
1
1000.61
1439.94
1
1000.71
1501.69
1
1000.81
1473.67
1
1000.91
1424.29
1
1001.01
1510.63
1
1001.11
1439.25
1
1001.21
1504.56
1
1001.31
1449.63
1
1001.41
1499.57
1
1001.51
1516.59
1
1001.61
1470.99
1
1001.71
1446.03
1
1001.81
1491.14
1
1001.91
1482.6
1
1002.01
1458.25
1
1002.11
1464.51
1
1002.21
1528.15
1
1002.31
1599.73
1
1002.41
1519.57
1
1002.51
1464.08
1
1002.61
1500.98
1
1002.71
1491.64
1
1002.81
1506.13
1
1002.91
1493.78
1
1003.01
1490.32
1
1003.11
1562.09
1
1003.21
1609.35
1
1003.31
1533.6
1
1003.41
1496.24
1
1003.51
1515.64
1
1003.61
1520.53
1
1003.71
1584.04
1
1003.81
1479.16
1
1003.91
1498.88
1
1004.01
1597.33
1
1004.11
1576.33
1
1004.21
1609.96
1
1004.31
1589.92
1
1004.41
1588.85
1
1004.51
1571.07
1
1004.61
1564.75
1
1004.71
1641.64
1
1004.81
1614.72
1
1004.91
1545.26
1
1005.01
1584.59
1
1005.11
1642.09
1
1005.21
1624.18
1
1005.31
1587.97
1
1005.41
1664.19
1
1005.51
1622.77
1
1005.61
1631.17
1
1005.71
1685.78
1
1005.81
1639.74
1
1005.91
1667.52
1
1006.01
1660.09
1
1006.11
1692.51
1
1006.21
1740.76
1
1006.31
1741.68
1
1006.41
1670.29
1
1006.51
1597.06
1
1006.61
1699.18
1
1006.71
1670.17
1
1006.81
1693.94
1
1006.91
1620.58
1
1007.01
1651.87
1
1007.11
1653.77
1
1007.21
1699.66
1
1007.31
1772.5
1
1007.41
1760.24
1
1007.51
1777.14
1
1007.61
1729.47
1
1007.71
1707.44
1
1007.81
1685.22
1
1007.91
1823.56
1
1008.01
1773.63
1
1008.11
1798.18
1
1008.21
1658.13
1
1008.31
1712.2
1
1008.41
1712.79
1
1008.51
1786.61
1
1008.61
1802.67
1
1008.71
1800.84
1
1008.81
1845.9
1
1008.91
1794.35
1
1009.01
1683.68
1
1009.11
1746.38
1
1009.21
1813.12
1
1009.31
1744.82
1
1009.41
1813.56
1
1009.51
1879.87
1
1009.61
1808.8
1
1009.71
1876.88
1
1009.81
1852.78
1
1009.91
1811.09
1
1010.01
1835.17
1
1010.11
1720.69
1
1010.21
1870.48
1
1010.31
1845.77
1
1010.41
1890.29
1
1010.51
1887.68
1
1010.61
1915.28
1
1010.71
1897.2
1
1010.81
1843.1
1
1010.91
1882.49
1
1011.01
1923.08
1
1011.11
1869.6
1
1011.21
1931.1
1
1011.31
1872.84
1
1011.41
1856.21
1
1011.51
1754.08
1
1011.61
1854.61
1
1011.71
1836.8
1
1011.81
1858.82
1
1011.91
1916.85
1
1012.01
1958.7
1
1012.11
1946.96
1
1012.21
1843.17
1
1012.31
1901.22
1
1012.41
1979.69
1
1012.51
1873.84
1
1012.61
1820.68
1
1012.71
1919.9
1
1012.81
1879.35
1
1012.91
1933.45
1
1013.01
1916.62
1
1013.11
1825.82
1
1013.21
1825.83
1
1013.31
1934.56
1
1013.41
1951.73
1
1013.51
1848.74
1
1013.61
1941.73
1
1013.71
2018.38
1
1013.81
1930.07
1
1013.91
1920.36
1
1014.01
2013.36
1
1014.11
1984.06
1
1014.21
2007.5
1
1014.31
1948.81
1
1014.41
1946.49
1
1014.51
1951.41
1
1014.61
1930.67
1
1014.71
1969.69
1
1014.81
2028.56
1
1014.91
1991.82
1
1015.01
1942.89
1
1015.11
1909.56
1
1015.21
1915.99
1
1015.31
1955.57
1
1015.41
2015.53
1
1015.51
1852.58
1
1015.61
1963.3
1
1015.61
1933.49
1
1015.66
1941.26
1
1015.71
1965.15
1
1015.71
1877.62
1
1015.76
1971.51
1
1015.81
1973.09
1
1015.81
1768.22
1
1015.86
2021.45
1
1015.91
1933.58
1
1015.91
1947.46
1
1015.96
1956.42
1
1016.01
1980.6
1
1016.01
1869.75
1
1016.06
1855.78
1
1016.11
1938.97
1
1016.11
1872.9
1
1016.16
1999.16
1
1016.21
1972.71
1
1016.21
1929.9
1
1016.26
1973.12
1
1016.31
1848.81
1
1016.31
1885.8
1
1016.36
1938.1
1
1016.41
2018.31
1
1016.41
1808.37
1
1016.46
1981.29
1
1016.51
1823.87
1
1016.51
1951.69
1
1016.56
1940.62
1
1016.61
1889.25
1
1016.61
1812.92
1
1016.66
1904.31
1
1016.71
1895.27
1
1016.76
1935.61
1
1016.81
1942.68
1
1016.86
1929.89
1
1016.91
1882.81
1
1016.96
1902.12
1
1017.01
1901.64
1
1017.06
1902.15
1
1017.11
1889.43
1
1017.16
1937.09
1
1017.21
1926.96
1
1017.26
1910.96
1
1017.31
1844.52
1
1017.36
1896.03
1
1017.41
1863.37
1
1017.46
1931.4
1
1017.51
1887.82
1
1017.56
1865.67
1
1017.61
1912.49
1
1017.66
1895.03
1
1017.71
1966.08
1
1017.76
1927.63
1
1017.81
1876.22
1
1017.86
1850.19
1
1017.91
1906.06
1
1017.96
1938.18
1
1018.01
1950.47
1
1018.06
1817.53
1
1018.11
1766.07
1
1018.16
1759.62
1
1018.21
1838.78
1
1018.26
1838.98
1
1018.31
1809.91
1
1018.36
1803.35
1
1018.41
1828.37
1
1018.46
1830.74
1
1018.51
1836.04
1
1018.56
1808.17
1
1018.61
1865.96
1
1018.66
1815.38
1
1018.71
1796.13
1
1018.76
1857.29
1
1018.81
1805.1
1
1018.86
1890.62
1
1018.91
1837.8
1
1018.96
1821.53
1
1019.01
1816.02
1
1019.06
1822.96
1
1019.11
1846.53
1
1019.16
1843.97
1
1019.21
1816.55
1
1019.26
1844.37
1
1019.31
1751.26
1
1019.36
1801.92
1
1019.41
1833.22
1
1019.46
1792.86
1
1019.51
1794.61
1
1019.56
1781.12
1
1019.61
1772.53
1
1019.66
1779.03
1
1019.71
1816.7
1
1019.76
1731.66
1
1019.81
1753.41
1
1019.86
1744.02
1
1019.91
1781.79
1
1019.96
1769.55
1
1020.01
1744.31
1
1020.06
1728.57
1
1020.11
1709.92
1
1020.16
1750.91
1
1020.21
1729.59
1
1020.26
1691.85
1
1020.31
1661.76
1
1020.36
1641.75
1
1020.41
1691.15
1
1020.46
1696.6
1
1020.51
1641.03
1
1020.56
1664.82
1
1020.61
1685.23
1
1020.66
1734.4
1
1020.71
1743.33
1
1020.76
1725.8
1
1020.81
1641.08
1
1020.86
1659.57
1
1020.91
1642.85
1
1020.96
1653.85
1
1021.01
1642.46
1
1021.06
1596.89
1
1021.11
1655.18
1
1021.16
1631.72
1
1021.21
1677.89
1
1021.26
1615.46
1
1021.31
1575.95
1
1021.36
1635.74
1
1021.41
1637.82
1
1021.46
1621.95
1
1021.51
1624.47
1
1021.56
1602.28
1
1021.61
1617.64
1
1021.66
1661.08
1
1021.71
1601.39
1
1021.76
1597.96
1
1021.81
1634.78
1
1021.86
1515.82
1
1021.91
1529.38
1
1021.96
1589.72
1
1022.01
1631.87
1
1022.06
1600.49
1
1022.11
1609.53
1
1022.16
1621.86
1
1022.21
1618.58
1
1022.26
1588.22
1
1022.31
1611.16
1
1022.36
1538.82
1
1022.41
1555.75
1
1022.46
1623.54
1
1022.51
1596.04
1
1022.56
1598.46
1
1022.61
1625.18
1
1022.66
1625.41
1
1022.71
1559.8
1
1022.76
1590.72
1
1022.81
1603
1
1022.86
1625.45
1
1022.91
1614.94
1
1022.96
1616.31
1
1023.01
1646.62
1
1023.06
1605.99
1
1023.11
1574.2
1
1023.16
1653.07
1
1023.21
1616.84
1
1023.26
1643.5
1
1023.31
1681.81
1
1023.36
1687.59
1
1023.41
1643.74
1
1023.46
1699.56
1
1023.51
1685.63
1
1023.56
1623.89
1
1023.61
1709.65
1
1023.66
1685.35
1
1023.71
1678.15
1
1023.76
1712.26
1
1023.81
1734.06
1
1023.86
1753.33
1
1023.91
1749.23
1
1023.96
1685.39
1
1024.01
1678.21
1
1024.06
1703.71
1
1024.11
1667.25
1
1024.16
1723.33
1
1024.21
1737.96
1
1024.26
1747.16
1
1024.31
1784.91
1
1024.36
1834.63
1
1024.41
1847.48
1
1024.46
1857.75
1
1024.51
1841.84
1
1024.56
1830
1
1024.61
1880.13
1
1024.66
1914.53
1
1024.71
1958.79
1
1024.76
1980.26
1
1024.81
1929.9
1
1024.86
1946.76
1
1024.91
2011.96
1
1024.96
1987.89
1
1025.01
1956.88
1
1025.06
2011.1
1
1025.11
1984.67
1
1025.16
2039.99
1
1025.21
2056.17
1
1025.26
2128.09
1
1025.31
2070.19
1
1025.36
2128.97
1
1025.41
2115.4
1
1025.46
2262.59
1
1025.51
2320.48
1
1025.56
2286.48
1
1025.61
2379.47
1
1025.66
2412.44
1
1025.71
2474.45
1
1025.76
2484.5
1
1025.81
2593.62
1
1025.86
2650.32
1
1025.91
2727.02
1
1025.96
2862.62
1
1026.01
2860.44
1
1026.06
3055.64
1
1026.11
3137.41
1
1026.16
3219.96
1
1026.21
3305.52
1
1026.26
3447.77
1
1026.31
3530.05
1
1026.36
3615.49
1
1026.41
3658.58
1
1026.46
3777.02
1
1026.51
3966.76
1
1026.56
4018.36
1
1026.61
4079.39
1
1026.66
4113.2
1
1026.71
4028.53
1
1026.76
4037.47
1
1026.81
3963.71
1
1026.86
3850.84
1
1026.91
3698.38
1
1026.96
3619.54
1
1027.01
3422.72
1
1027.06
3176.2
1
1027.11
3153.17
1
1027.16
3044.57
1
1027.21
2829.88
1
1027.26
2589.45
1
1027.31
2474.68
1
1027.36
2354.17
1
1027.41
2254.55
1
1027.46
2028.81
1
1027.51
2031.41
1
1027.56
1822.23
1
1027.61
1832.39
1
1027.66
1757.17
1
1027.71
1626.62
1
1027.76
1673.17
1
1027.81
1630.39
1
1027.86
1465.44
1
1027.91
1470.7
1
1027.96
1448.93
1
1028.01
1361.87
1
1028.06
1306.54
1
1028.11
1325.99
1
1028.16
1288.78
1
1028.21
1338
1
1028.26
1353.09
1
1028.31
1321.05
1
1028.36
1320.89
1
1028.41
1233.07
1
1028.46
1219.36
1
1028.51
1236.26
1
1028.56
1258.57
1
1028.61
1202.57
1
1028.66
1213.91
1
1028.71
1188.95
1
1028.76
1237.24
1
1028.81
1213.76
1
1028.86
1175.42
1
1028.91
1218.24
1
1028.96
1226.62
1
1029.01
1264.76
1
1029.06
1243.46
1
1029.11
1216.39
1
1029.16
1275.79
1
1029.21
1290.32
1
1029.26
1184.19
1
1029.31
1207.88
1
1029.36
1225.3
1
1029.41
1256.9
1
1029.46
1249.17
1
1029.51
1235.28
1
1029.56
1277.07
1
1029.61
1330.8
1
1029.66
1323.01
1
1029.71
1324.2
1
1029.76
1344.62
1
1029.81
1308.33
1
1029.86
1333.98
1
1029.91
1324.21
1
1029.96
1308.42
1
1030.01
1352.92
1
1030.06
1376.73
1
1030.11
1373.89
1
1030.16
1427.71
1
1030.21
1426.87
1
1030.26
1481.12
1
1030.31
1499.48
1
1030.36
1465.18
1
1030.41
1526.2
1
1030.46
1531.63
1
1030.51
1530.68
1
1030.56
1558.82
1
1030.61
1578.27
1
1030.66
1606.92
1
1030.71
1658.45
1
1030.76
1627.62
1
1030.81
1707.29
1
1030.86
1783.53
1
1030.91
1789.62
1
1030.96
1818.66
1
1031.01
1794.29
1
1031.06
1841.96
1
1031.11
1842.23
1
1031.16
1919.9
1
1031.21
1996.49
1
1031.26
2097.07
1
1031.31
2098.6
1
1031.36
2159.06
1
1031.41
2191.78
1
1031.46
2365.46
1
1031.51
2365.36
1
1031.56
2361.12
1
1031.61
2539.57
1
1031.66
2612.76
1
1031.71
2578.6
1
1031.76
2815.58
1
1031.81
2917.59
1
1031.86
3025.62
1
1031.91
3160.55
1
1031.96
3234.93
1
1032.01
3381.58
1
1032.06
3530.59
1
1032.11
3778.39
1
1032.16
3966.65
1
1032.21
4160
1
1032.26
4551.55
1
1032.31
4784.78
1
1032.36
5131.12
1
1032.41
5563.98
1
1032.46
5837.79
1
1032.51
6216.12
1
1032.56
6564.46
1
1032.61
6849.11
1
1032.66
7123.46
1
1032.71
7348.28
1
1032.76
7566.48
1
1032.81
7540.43
1
1032.86
7522.43
1
1032.91
7300.02
1
1032.96
7014.46
1
1033.01
6650.6
1
1033.06
6298.39
1
1033.11
5814.3
1
1033.16
5241.1
1
1033.21
4719.32
1
1033.26
4082.49
1
1033.31
3539.61
1
1033.36
2979.52
1
1033.41
2604.1
1
1033.46
2080.86
1
1033.51
1789.26
1
1033.56
1507.07
1
1033.61
1208.84
1
1033.66
1004.87
1
1033.71
840.511
1
1033.76
696.477
1
1033.81
639.592
1
1033.86
534.113
1
1033.91
442.715
1
1033.96
403.622
1
1034.01
325.708
1
1034.06
310.052
1
1034.11
273.502
1
1034.16
251.865
1
1034.21
224.698
1
1034.26
218.158
1
1034.31
189.398
1
1034.36
152.771
1
1034.41
145.057
1
1034.46
158.48
1
1034.51
171.61
1
1034.56
155.34
1
1034.61
126.164
1
1034.66
119.394
1
1034.71
98.7856
1
1034.76
104.416
1
1034.81
102.57
1
1034.86
87.9027
1
1034.91
102.569
1
1034.96
64.2042
1
1035.01
86.0091
1
1035.06
83.7235
1
1035.11
65.2265
1
1035.16
66.9629
1
1035.21
81.7472
1
1035.26
54.5349
1
1035.31
72.9072
1
1035.36
62.729
1
1035.41
54.6963
1
1035.46
52.9836
1
1035.51
51.4427
1
1035.56
66.2454
1
1035.61
27.7958
1
1035.66
22.6612
1
1035.71
47.0201
1
1035.76
48.3473
1
1035.81
31.6776
1
1035.86
42.2973
1
1035.91
39.7689
1
1035.96
43.744
1
1036.01
46.7088
1
1036.06
23.7669
1
1036.11
21.9353
1
1036.16
30.339
1
1036.21
24.5338
1
1036.26
42.0066
1
1036.31
32.2861
1
1036.36
32.8994
1
1036.41
16.5913
1
1036.46
22.0684
1
1036.51
33.4338
1
1036.56
8.30744
1
1036.61
-0.320683
1
1036.66
18.5145
1
1036.71
1.25567
1
1036.76
25.7189
1
1036.81
17.9205
1
1036.86
26.8709
1
1036.91
25.6579
1
1036.96
6.53318
1
1037.01
4.06964
1
1037.06
-1.81192
1
1037.11
-0.175084
1
1037.16
-0.188564
1
1037.21
-11.2699
1
1037.26
-15.6917
1
1037.31
-6.23708
1
1037.36
-6.73301
1
1037.41
-0.235253
1
1037.46
10.3945
1
1037.51
10.0545
1
1037.56
-19.4511
1
1037.61
-5.57347
1
1037.66
-8.28048
1
1037.71
-10.6555
1
1037.76
15.8692
1
1037.81
1.42326
1
1037.86
10.7452
1
1037.91
-15.8064
1
1037.96
4.76975
1
1038.01
-3.04375
1
1038.06
8.44116
1
1038.11
19.9889
1
1038.16
-3.29813
1
1038.21
-3.13742
1
1038.26
9.13695
1
1038.31
-9.16297
1
1038.36
-11.0692
1
1038.41
-16.0218
1
1038.46
-9.66303
1
1038.51
-21.0405
1
1038.56
-8.54283
1
1038.61
4.97534
1
1038.66
-16.1839
1
1038.71
-15.0884
1
1038.76
2.18459
1
1038.81
16.2773
1
1038.86
-4.55229
1
1038.91
-0.530202
1
1038.96
9.59498
1
1039.01
-7.12591
1
1039.06
-11.1653
1
1039.11
-11.6532
1
1039.16
-11.1526
1
1039.21
7.07497
1
1039.26
-12.3676
1
1039.31
-12.9418
1
1039.36
-25.59
1
1039.41
-22.8096
1
1039.46
-4.09079
1
1039.51
-17.3984
1
1039.56
-4.18499
1
1039.61
-8.62249
1
1039.66
-10.5458
1
1039.71
-3.7872
1
1039.76
-11.0384
1
1039.81
-12.3709
1
1039.86
-22.5307
1
1039.91
-13.1936
1
1039.96
-24.3836
1
1040.01
-37.2227
1
1040.06
3.18044
1
1040.11
3.24155
1
1040.16
3.11073
1
1040.21
0
1
1040.26
0
1
1040.31
0
1
1040.36
0
1
1040.41
0
1
1040.46
0
1
1040.51
0
1
1040.56
0
1
1040.61
0
1
&TiO
TiO lineshape
0
0
0
0
0
0
0
12
Casa Info Follows
0
0
0
0

PCA Coefs = 41396.7, -3191.99, 1103.12, 387.504, 
PCA Coefs = 41396.7, -3191.99, 1103.12, 387.504, -363.953, 
PCA Coefs = 41439, -2585.94, 1104.79, -371.422, -359.987, 128.966, 
c:\users\mark\owncloud\muelheim group\projects\tio2\analyzed data\experiment 2019-03-28_ti sheet_cec-1303 - vector analysis.vms
c:\users\mark\owncloud\muelheim group\projects\tio2\analyzed data\experiment 2019-03-28_ti sheet_cec-1303 - vector analysis.vms
C:\Users\pielsticker\Downloads\Ti\EX209_CEC303 Ti slow oxidation - vectro fit - irregular.vms
XPS
1e+037
Al
1486.61
1e+037
1e+037
1e+037
1e+037
1e+037
FAT
1e+037
1e+037
1e+037
1e+037
1e+037
1e+037
1e+037
1e+037
Ti
2p
-1
3
Kinetic Energy
eV
Intensity
d
transmission
d
pulse counting
1
1
1e+037
1e+037
1e+037
1e+037
3
MFP Exponent
d
0
ESCAPE DEPTH TYPE
d
1
PROPAGATION_CONVERGED
d
1
2406
0
1
0
1
0
1
986.61
0
1
986.71
0
1
986.81
0
1
986.91
0
1
987.01
0
1
987.11
0
1
987.21
0
1
987.31
0
1
987.41
427.081
1
987.51
418.506
1
987.61
421.294
1
987.71
440.148
1
987.81
443.528
1
987.91
430.838
1
988.01
445.739
1
988.11
424.025
1
988.21
434.13
1
988.31
418.792
1
988.41
428.149
1
988.51
454.731
1
988.61
439.937
1
988.71
440.084
1
988.81
432.384
1
988.91
432.304
1
989.01
440.641
1
989.11
446.848
1
989.21
426.341
1
989.31
427.43
1
989.41
433.208
1
989.51
424.875
1
989.61
432.054
1
989.71
420.255
1
989.81
436.188
1
989.91
437.574
1
990.01
442.909
1
990.11
437.73
1
990.21
421.943
1
990.31
412.513
1
990.41
435.891
1
990.51
431.311
1
990.61
432.78
1
990.71
433.572
1
990.81
418.188
1
990.91
409.864
1
991.01
422.085
1
991.11
426.173
1
991.21
444.271
1
991.31
414.74
1
991.41
436.211
1
991.51
426.44
1
991.61
422.63
1
991.71
419.722
1
991.81
433.338
1
991.91
436.796
1
992.01
436.845
1
992.11
430.264
1
992.21
409.348
1
992.31
408.522
1
992.41
437.968
1
992.51
445.551
1
992.61
438.706
1
992.71
442.301
1
992.81
436.554
1
992.91
427.755
1
993.01
444.831
1
993.11
456.361
1
993.21
439.465
1
993.31
450.223
1
993.41
444.027
1
993.51
436.61
1
993.61
442.322
1
993.71
448.84
1
993.81
443.012
1
993.91
447.565
1
994.01
442.503
1
994.11
431.631
1
994.21
441.927
1
994.31
439.397
1
994.41
446.213
1
994.51
436.637
1
994.61
431.379
1
994.71
439.383
1
994.81
437.913
1
994.91
437.081
1
995.01
451.356
1
995.11
441.987
1
995.21
433.982
1
995.31
435.758
1
995.41
438.365
1
995.51
440.249
1
995.61
441.327
1
995.71
470.201
1
995.81
461.681
1
995.91
465.133
1
996.01
457.167
1
996.11
452.422
1
996.21
450.82
1
996.31
465.086
1
996.41
461.236
1
996.51
459.164
1
996.61
447.345
1
996.71
449.258
1
996.81
459.59
1
996.91
458.529
1
997.01
473.17
1
997.11
477.211
1
997.21
459.326
1
997.31
460.033
1
997.41
459.628
1
997.51
445.237
1
997.61
452.9
1
997.71
462.703
1
997.81
459.284
1
997.91
451.872
1
998.01
456.31
1
998.11
469.161
1
998.21
467.634
1
998.31
475.462
1
998.41
474.394
1
998.51
456.623
1
998.61
469.981
1
998.71
480.575
1
998.81
487.905
1
998.91
476.11
1
999.01
472.079
1
999.11
488.889
1
999.21
482.388
1
999.31
473.36
1
999.41
485.498
1
999.51
489.987
1
999.61
486.287
1
999.71
499.989
1
999.81
499.325
1
999.91
503.847
1
1000.01
495.847
1
1000.11
472.305
1
1000.21
495.686
1
1000.31
470.454
1
1000.41
456.9
1
1000.51
470.1
1
1000.61
477.155
1
1000.71
488.566
1
1000.81
501.371
1
1000.91
487.255
1
1001.01
491.032
1
1001.11
485.732
1
1001.21
504.469
1
1001.31
498.971
1
1001.41
487.565
1
1001.51
495.287
1
1001.61
492.023
1
1001.71
515.751
1
1001.81
524.072
1
1001.91
521.562
1
1002.01
511.741
1
1002.11
520.4
1
1002.21
503.72
1
1002.31
510.643
1
1002.41
513.259
1
1002.51
516.99
1
1002.61
517.098
1
1002.71
511.597
1
1002.81
514.602
1
1002.91
518.202
1
1003.01
511.706
1
1003.11
525.184
1
1003.21
517.952
1
1003.31
517.622
1
1003.41
524.306
1
1003.51
508.334
1
1003.61
516.65
1
1003.71
520.695
1
1003.81
527.955
1
1003.91
529.331
1
1004.01
533.794
1
1004.11
532.939
1
1004.21
517.49
1
1004.31
527.727
1
1004.41
538.381
1
1004.51
533.308
1
1004.61
521.561
1
1004.71
544.611
1
1004.81
527.324
1
1004.91
532.448
1
1005.01
570.213
1
1005.11
563.09
1
1005.21
541.792
1
1005.31
542.99
1
1005.41
559.25
1
1005.51
545.665
1
1005.61
543.146
1
1005.71
526.3
1
1005.81
537.531
1
1005.91
572.365
1
1006.01
555.441
1
1006.11
549.727
1
1006.21
551.249
1
1006.31
548.66
1
1006.41
551.261
1
1006.51
563.665
1
1006.61
576.201
1
1006.71
577.334
1
1006.81
567.664
1
1006.91
553.853
1
1007.01
558.785
1
1007.11
584.367
1
1007.21
581.728
1
1007.31
565.461
1
1007.41
575.372
1
1007.51
562.378
1
1007.61
563.918
1
1007.71
558.304
1
1007.81
554.263
1
1007.91
548.855
1
1008.01
560.082
1
1008.11
587.028
1
1008.21
594.404
1
1008.31
582.535
1
1008.41
572.581
1
1008.51
570.811
1
1008.61
557.279
1
1008.71
573.391
1
1008.81
568.03
1
1008.91
560.161
1
1009.01
607.207
1
1009.11
597.167
1
1009.21
578.718
1
1009.31
585.585
1
1009.41
598.421
1
1009.51
580.41
1
1009.61
576.951
1
1009.71
584.575
1
1009.81
563.585
1
1009.91
563.558
1
1010.01
597.413
1
1010.11
592.348
1
1010.21
598.689
1
1010.31
591.048
1
1010.41
575.647
1
1010.51
562.049
1
1010.61
584.689
1
1010.71
613.504
1
1010.81
604.43
1
1010.91
590.102
1
1011.01
598.673
1
1011.11
597.336
1
1011.21
592.662
1
1011.31
580.7
1
1011.41
584.009
1
1011.51
612.752
1
1011.61
604.978
1
1011.71
591.136
1
1011.81
582.187
1
1011.91
581.801
1
1012.01
583.193
1
1012.11
607.547
1
1012.21
625.368
1
1012.31
616.005
1
1012.41
610.544
1
1012.51
606.481
1
1012.61
612.489
1
1012.71
611.253
1
1012.81
586.851
1
1012.91
623.68
1
1013.01
621.663
1
1013.11
618.895
1
1013.21
600.995
1
1013.31
597.049
1
1013.41
591.93
1
1013.51
595.137
1
1013.61
603.223
1
1013.71
596.239
1
1013.81
587.085
1
1013.91
584.361
1
1014.01
619.158
1
1014.11
618.527
1
1014.21
619.188
1
1014.31
606.433
1
1014.41
602.386
1
1014.51
600.324
1
1014.61
589.299
1
1014.71
577.321
1
1014.81
579.679
1
1014.91
594.519
1
1015.01
606.455
1
1015.11
603.592
1
1015.21
592.769
1
1015.31
592.667
1
1015.41
597.347
1
1015.51
598.124
1
1015.61
613.572
1
1015.61
613.572
1
1015.66
606.643
1
1015.71
596.493
1
1015.71
596.493
1
1015.76
589.147
1
1015.81
588.693
1
1015.81
588.693
1
1015.86
579.432
1
1015.91
581.863
1
1015.91
581.863
1
1015.96
590.761
1
1016.01
606.759
1
1016.01
606.759
1
1016.06
609.806
1
1016.11
596.144
1
1016.11
596.144
1
1016.16
592.706
1
1016.21
598.696
1
1016.21
598.696
1
1016.26
611.189
1
1016.31
606.286
1
1016.31
606.286
1
1016.36
599.476
1
1016.41
595.682
1
1016.41
595.682
1
1016.46
596.852
1
1016.51
597.099
1
1016.51
597.099
1
1016.56
598.501
1
1016.61
605.691
1
1016.61
605.691
1
1016.66
610.47
1
1016.71
593.859
1
1016.76
587.774
1
1016.81
596.403
1
1016.86
606.607
1
1016.91
594.915
1
1016.96
590.241
1
1017.01
587.636
1
1017.06
593.328
1
1017.11
606.761
1
1017.16
614.115
1
1017.21
607.689
1
1017.26
606.91
1
1017.31
604.424
1
1017.36
602.25
1
1017.41
596.921
1
1017.46
598.695
1
1017.51
596.989
1
1017.56
616.919
1
1017.61
630.31
1
1017.66
622.391
1
1017.71
607.099
1
1017.76
595.336
1
1017.81
587.203
1
1017.86
595.983
1
1017.91
605.75
1
1017.96
615.677
1
1018.01
625.619
1
1018.06
613.386
1
1018.11
605.926
1
1018.16
617.972
1
1018.21
625.144
1
1018.26
622.84
1
1018.31
627.313
1
1018.36
632.35
1
1018.41
632.086
1
1018.46
627.843
1
1018.51
633.444
1
1018.56
634.983
1
1018.61
644.948
1
1018.66
640.885
1
1018.71
636.764
1
1018.76
635.98
1
1018.81
641.379
1
1018.86
635.21
1
1018.91
637.855
1
1018.96
640.268
1
1019.01
636.099
1
1019.06
639.37
1
1019.11
652.623
1
1019.16
650.936
1
1019.21
641.447
1
1019.26
633.369
1
1019.31
632.682
1
1019.36
655.528
1
1019.41
663.565
1
1019.46
641.491
1
1019.51
635.212
1
1019.56
654.307
1
1019.61
660.336
1
1019.66
646.061
1
1019.71
633.939
1
1019.76
636.468
1
1019.81
654.36
1
1019.86
662.07
1
1019.91
664.706
1
1019.96
657.652
1
1020.01
659.696
1
1020.06
670.068
1
1020.11
657.005
1
1020.16
642.071
1
1020.21
639.889
1
1020.26
652.869
1
1020.31
647.107
1
1020.36
646.274
1
1020.41
650.887
1
1020.46
642.982
1
1020.51
650.078
1
1020.56
652.998
1
1020.61
647.973
1
1020.66
644.93
1
1020.71
642.48
1
1020.76
645.896
1
1020.81
641.294
1
1020.86
639.946
1
1020.91
621.76
1
1020.96
612.865
1
1021.01
633.689
1
1021.06
650.912
1
1021.11
641.391
1
1021.16
635.865
1
1021.21
642.629
1
1021.26
630.395
1
1021.31
625.183
1
1021.36
619.537
1
1021.41
597.361
1
1021.46
601.796
1
1021.51
611.948
1
1021.56
614.391
1
1021.61
603.574
1
1021.66
597.574
1
1021.71
611.698
1
1021.76
624.68
1
1021.81
606.544
1
1021.86
602.935
1
1021.91
598.509
1
1021.96
596.883
1
1022.01
611.599
1
1022.06
620.342
1
1022.11
613.523
1
1022.16
604.326
1
1022.21
590.066
1
1022.26
600.494
1
1022.31
606.824
1
1022.36
609.488
1
1022.41
613.648
1
1022.46
625.965
1
1022.51
630.209
1
1022.56
631.693
1
1022.61
631.426
1
1022.66
622.286
1
1022.71
616.234
1
1022.76
624.195
1
1022.81
617.276
1
1022.86
615.601
1
1022.91
612.854
1
1022.96
614.498
1
1023.01
619.12
1
1023.06
616.276
1
1023.11
616.27
1
1023.16
627.49
1
1023.21
630.329
1
1023.26
633.982
1
1023.31
642.111
1
1023.36
653.565
1
1023.41
661.154
1
1023.46
658.673
1
1023.51
649.041
1
1023.56
654.01
1
1023.61
653.472
1
1023.66
659.6
1
1023.71
672.917
1
1023.76
696.757
1
1023.81
699.632
1
1023.86
700.605
1
1023.91
722.662
1
1023.96
721.115
1
1024.01
707.336
1
1024.06
716.577
1
1024.11
724.502
1
1024.16
727.607
1
1024.21
738.511
1
1024.26
744.571
1
1024.31
762.687
1
1024.36
782.149
1
1024.41
786.671
1
1024.46
807.825
1
1024.51
843.475
1
1024.56
852.08
1
1024.61
861.424
1
1024.66
889.127
1
1024.71
917.206
1
1024.76
947.463
1
1024.81
972.005
1
1024.86
998.212
1
1024.91
1028.03
1
1024.96
1074.52
1
1025.01
1085.06
1
1025.06
1104.14
1
1025.11
1127.84
1
1025.16
1146.89
1
1025.21
1180.85
1
1025.26
1204.02
1
1025.31
1205.46
1
1025.36
1228.78
1
1025.41
1242.28
1
1025.46
1263.49
1
1025.51
1289.05
1
1025.56
1297.93
1
1025.61
1306.35
1
1025.66
1306.82
1
1025.71
1311.04
1
1025.76
1297.79
1
1025.81
1283.7
1
1025.86
1305.61
1
1025.91
1318.77
1
1025.96
1311.91
1
1026.01
1291.32
1
1026.06
1278.79
1
1026.11
1281.26
1
1026.16
1258.34
1
1026.21
1239.21
1
1026.26
1226.52
1
1026.31
1203.76
1
1026.36
1180.8
1
1026.41
1158.37
1
1026.46
1107.57
1
1026.51
1078.51
1
1026.56
1053.42
1
1026.61
1020.15
1
1026.66
966.384
1
1026.71
928.974
1
1026.76
914.815
1
1026.81
889.388
1
1026.86
853.786
1
1026.91
824.393
1
1026.96
813.064
1
1027.01
792
1
1027.06
751.093
1
1027.11
714.097
1
1027.16
710.105
1
1027.21
695.528
1
1027.26
684.222
1
1027.31
685.561
1
1027.36
684.72
1
1027.41
668.26
1
1027.46
627.587
1
1027.51
631.47
1
1027.56
658.623
1
1027.61
637.027
1
1027.66
642.104
1
1027.71
640.778
1
1027.76
633.631
1
1027.81
634.57
1
1027.86
628.873
1
1027.91
618.156
1
1027.96
612.279
1
1028.01
599.723
1
1028.06
604.039
1
1028.11
629.057
1
1028.16
642.082
1
1028.21
620.889
1
1028.26
622.357
1
1028.31
629.837
1
1028.36
619.895
1
1028.41
622.267
1
1028.46
622.023
1
1028.51
620.128
1
1028.56
625.951
1
1028.61
631.855
1
1028.66
614.199
1
1028.71
614.635
1
1028.76
617.21
1
1028.81
598.893
1
1028.86
610.767
1
1028.91
628.933
1
1028.96
626.956
1
1029.01
613.245
1
1029.06
614.639
1
1029.11
626.144
1
1029.16
625.542
1
1029.21
628.511
1
1029.26
632.868
1
1029.31
627.299
1
1029.36
619.494
1
1029.41
627.466
1
1029.46
630.058
1
1029.51
638.279
1
1029.56
659.878
1
1029.61
656.9
1
1029.66
646.594
1
1029.71
664.871
1
1029.76
683.659
1
1029.81
682.119
1
1029.86
681.045
1
1029.91
691.803
1
1029.96
706.242
1
1030.01
711.438
1
1030.06
706.374
1
1030.11
722.547
1
1030.16
762.85
1
1030.21
779.71
1
1030.26
796.785
1
1030.31
818.387
1
1030.36
819.516
1
1030.41
841.578
1
1030.46
865.099
1
1030.51
869.894
1
1030.56
900.825
1
1030.61
953.821
1
1030.66
976.082
1
1030.71
1014.67
1
1030.76
1053.07
1
1030.81
1098.15
1
1030.86
1141.38
1
1030.91
1180.55
1
1030.96
1223.69
1
1031.01
1290.65
1
1031.06
1350.41
1
1031.11
1413.9
1
1031.16
1470.94
1
1031.21
1522.83
1
1031.26
1606.21
1
1031.31
1683.65
1
1031.36
1750.5
1
1031.41
1805.37
1
1031.46
1844.15
1
1031.51
1882.09
1
1031.56
1911.79
1
1031.61
1937.36
1
1031.66
1935.1
1
1031.71
1902.05
1
1031.76
1867.2
1
1031.81
1820.49
1
1031.86
1769.3
1
1031.91
1733.01
1
1031.96
1703.26
1
1032.01
1674.2
1
1032.06
1627.17
1
1032.11
1594.21
1
1032.16
1564.9
1
1032.21
1532.43
1
1032.26
1480
1
1032.31
1412.55
1
1032.36
1341.55
1
1032.41
1276.98
1
1032.46
1208.53
1
1032.51
1103.07
1
1032.56
991.97
1
1032.61
898.867
1
1032.66
801.315
1
1032.71
693.039
1
1032.76
607.106
1
1032.81
524.306
1
1032.86
430.964
1
1032.91
360.997
1
1032.96
316.891
1
1033.01
265.384
1
1033.06
218.663
1
1033.11
184.599
1
1033.16
163.276
1
1033.21
146.727
1
1033.26
128.282
1
1033.31
115.72
1
1033.36
102.206
1
1033.41
84.3599
1
1033.46
76.3419
1
1033.51
73.258
1
1033.56
68.9179
1
1033.61
65.1807
1
1033.66
56.2314
1
1033.71
49.6746
1
1033.76
52.1579
1
1033.81
49.7747
1
1033.86
46.0503
1
1033.91
36.4411
1
1033.96
29.5619
1
1034.01
32.4556
1
1034.06
32.9876
1
1034.11
31.6081
1
1034.16
31.8027
1
1034.21
33.807
1
1034.26
35.8312
1
1034.31
29.7257
1
1034.36
24.3449
1
1034.41
21.9194
1
1034.46
25.1065
1
1034.51
30.7035
1
1034.56
28.6187
1
1034.61
21.3205
1
1034.66
24.2862
1
1034.71
23.786
1
1034.76
21.619
1
1034.81
17.8064
1
1034.86
16.3473
1
1034.91
18.0522
1
1034.96
20.8006
1
1035.01
20.7355
1
1035.06
19.2328
1
1035.11
13.6358
1
1035.16
14.2518
1
1035.21
12.7428
1
1035.26
11.468
1
1035.31
9.25257
1
1035.36
11.8099
1
1035.41
17.8825
1
1035.46
22.5386
1
1035.51
21.1059
1
1035.56
18.5313
1
1035.61
16.1824
1
1035.66
14.0897
1
1035.71
17.0204
1
1035.76
14.6167
1
1035.81
9.60597
1
1035.86
9.16277
1
1035.91
11.145
1
1035.96
9.83835
1
1036.01
12.7076
1
1036.06
14.9464
1
1036.11
16.3768
1
1036.16
13.8208
1
1036.21
9.75438
1
1036.26
6.88693
1
1036.31
6.69721
1
1036.36
8.23845
1
1036.41
7.37087
1
1036.46
6.43268
1
1036.51
5.21011
1
1036.56
4.52699
1
1036.61
8.72831
1
1036.66
9.3681
1
1036.71
3.6229
1
1036.76
3.03928
1
1036.81
3.17743
1
1036.86
4.20203
1
1036.91
1.47699
1
1036.96
6.18683
1
1037.01
9.76206
1
1037.06
7.32739
1
1037.11
5.90447
1
1037.16
5.52773
1
1037.21
5.99246
1
1037.26
1.44937
1
1037.31
3.90965
1
1037.36
6.36227
1
1037.41
5.08157
1
1037.46
4.98903
1
1037.51
6.53262
1
1037.56
7.41351
1
1037.61
6.63376
1
1037.66
5.79297
1
1037.71
4.39155
1
1037.76
4.02456
1
1037.81
0.0817091
1
1037.86
-1.30378
1
1037.91
-0.488158
1
1037.96
2.33727
1
1038.01
3.97329
1
1038.06
0.00398757
1
1038.11
1.92559
1
1038.16
7.03095
1
1038.21
5.79007
1
1038.26
2.50004
1
1038.31
2.19749
1
1038.36
0.677344
1
1038.41
-0.0809204
1
1038.46
1.75695
1
1038.51
4.7773
1
1038.56
4.94552
1
1038.61
8.75129
1
1038.66
8.18276
1
1038.71
3.21884
1
1038.76
0.187503
1
1038.81
-1.35327
1
1038.86
2.13401
1
1038.91
-1.81348
1
1038.96
0.645525
1
1039.01
1.8464
1
1039.06
-1.18018
1
1039.11
3.18172
1
1039.16
5.59011
1
1039.21
1.00807
1
1039.26
-1.82137
1
1039.31
0
1
1039.36
0
1
1039.41
0
1
1039.46
0
1
1039.51
0
1
1039.56
0
1
1039.61
0
1
1039.66
0
1
1039.71
0
1
1039.76
0
1
1039.81
0
1
1039.86
0
1
1039.91
0
1
1039.96
0
1
1040.01
0
1
1040.06
0
1
1040.11
0
1
1040.16
0
1
1040.21
0
1
1040.26
0
1
1040.31
0
1
1040.36
0
1
1040.41
0
1
1040.46
0
1
1040.51
0
1
1040.56
0
1
1040.61
0
1
&Ti2O3
Ti2O3 lineshape
0
0
0
0
0
0
0
11
Casa Info Follows
0
0
0
0

PCA Coefs = 179186, -26548.4, -22890.8, 3691.07, -1602.46, -1706.5, 
C:\Users\Mark\ownCloud\Muelheim Group\Projects\TiO2\analyzed data\EX209_CEC303 Ti slow oxidation - curated - irregular.vms
c:\users\mark\owncloud\muelheim group\projects\tio2\analyzed data\experiment 2019-03-28_ti sheet_cec-1303 - vector analysis.vms
C:\Users\pielsticker\Downloads\Ti\EX209_CEC303 Ti slow oxidation - vectro fit - irregular.vms
CasaXP2
XPS
1e+037
Al
1486.61
1e+037
1e+037
1e+037
1e+037
1e+037
FAT
1e+037
1e+037
1e+037
1e+037
1e+037
1e+037
1e+037
1e+037
Ti
2p
-1
3
Kinetic Energy
eV
Intensity
d
transmission
d
pulse counting
1
1
1e+037
1e+037
1e+037
1e+037
3
MFP Exponent
d
0
ESCAPE DEPTH TYPE
d
1
PROPAGATION_CONVERGED
d
1
2406
0
1
0
1
0
1
986.61
0
1
986.71
0
1
986.81
0
1
986.91
0
1
987.01
0
1
987.11
2534.66
1
987.21
2537.49
1
987.31
2540.32
1
987.41
2543.17
1
987.51
2546.02
1
987.61
2548.86
1
987.71
2551.71
1
987.81
2554.57
1
987.91
2557.43
1
988.01
2560.29
1
988.11
2563.15
1
988.21
2566.02
1
988.31
2568.89
1
988.41
2571.77
1
988.51
2574.65
1
988.61
2577.53
1
988.71
2580.42
1
988.81
2583.31
1
988.91
2586.21
1
989.01
2589.1
1
989.11
2592.01
1
989.21
2594.92
1
989.31
2597.83
1
989.41
2600.73
1
989.51
2603.65
1
989.61
2606.58
1
989.71
2609.5
1
989.81
2612.43
1
989.91
2615.4
1
990.01
2618.6
1
990.11
2621.8
1
990.21
2625
1
990.31
2628.21
1
990.41
2631.42
1
990.51
2634.65
1
990.61
2637.87
1
990.71
2641.09
1
990.81
2644.32
1
990.91
2647.56
1
991.01
2650.81
1
991.11
2654.05
1
991.21
2657.29
1
991.31
2660.55
1
991.41
2663.82
1
991.51
2667.08
1
991.61
2670.34
1
991.71
2673.62
1
991.81
2676.9
1
991.91
2680.19
1
992.01
2683.47
1
992.11
2686.76
1
992.21
2690.07
1
992.31
2693.38
1
992.41
2696.69
1
992.51
2699.99
1
992.61
2703.32
1
992.71
2706.66
1
992.81
2709.99
1
992.91
2713.33
1
993.01
2716.67
1
993.11
2720.03
1
993.21
2723.39
1
993.31
2726.96
1
993.41
2730.67
1
993.51
2734.4
1
993.61
2738.13
1
993.71
2741.86
1
993.81
2745.59
1
993.91
2749.35
1
994.01
2753.1
1
994.11
2756.86
1
994.21
2760.62
1
994.31
2764.39
1
994.41
2768.17
1
994.51
2771.96
1
994.61
2775.74
1
994.71
2779.53
1
994.81
2783.35
1
994.91
2787.17
1
995.01
2790.99
1
995.11
2794.8
1
995.21
2798.64
1
995.31
2802.49
1
995.41
2806.34
1
995.51
2810.19
1
995.61
2814.04
1
995.71
2817.92
1
995.81
2821.8
1
995.91
2825.68
1
996.01
2829.55
1
996.11
2833.46
1
996.21
2837.37
1
996.31
2841.28
1
996.41
2845.19
1
996.51
2849.12
1
996.61
2853.09
1
996.71
2857.46
1
996.81
2861.84
1
996.91
2866.23
1
997.01
2870.65
1
997.11
2875.06
1
997.21
2879.48
1
997.31
2883.9
1
997.41
2888.34
1
997.51
2892.79
1
997.61
2897.24
1
997.71
2901.69
1
997.81
2906.16
1
997.91
2910.65
1
998.01
2915.13
1
998.11
2919.62
1
998.21
2924.11
1
998.31
2926.65
1
998.41
2931.18
1
998.51
2935.73
1
998.61
2940.28
1
998.71
2944.89
1
998.81
2949.51
1
998.91
2954.15
1
999.01
2958.8
1
999.11
2963.5
1
999.21
2968.22
1
999.31
2972.97
1
999.41
2977.73
1
999.51
2982.5
1
999.61
2987.33
1
999.71
2992.17
1
999.81
2997.02
1
999.91
3001.89
1
1000.01
3006.8
1
1000.11
3011.74
1
1000.21
3016.69
1
1000.31
3021.66
1
1000.41
3026.65
1
1000.51
3031.69
1
1000.61
3036.74
1
1000.71
3041.8
1
1000.81
3046.88
1
1000.91
3052.02
1
1001.01
3057.17
1
1001.11
3062.33
1
1001.21
3067.52
1
1001.31
3072.75
1
1001.41
3078.01
1
1001.51
3083.29
1
1001.61
3088.58
1
1001.71
3093.9
1
1001.81
3099.26
1
1001.91
3104.64
1
1002.01
3110.03
1
1002.11
3115.44
1
1002.21
3120.89
1
1002.31
3126.36
1
1002.41
3131.85
1
1002.51
3137.36
1
1002.61
3142.9
1
1002.71
3148.46
1
1002.81
3154.05
1
1002.91
3159.64
1
1003.01
3165.27
1
1003.11
3170.93
1
1003.21
3176.6
1
1003.31
3182.29
1
1003.41
3188.03
1
1003.51
3193.8
1
1003.61
3199.59
1
1003.71
3205.4
1
1003.81
3211.23
1
1003.91
3217.08
1
1004.01
3222.96
1
1004.11
3228.85
1
1004.21
3234.76
1
1004.31
3240.69
1
1004.41
3246.65
1
1004.51
3252.63
1
1004.61
3258.62
1
1004.71
3264.63
1
1004.81
3270.66
1
1004.91
3276.72
1
1005.01
3282.79
1
1005.11
3288.87
1
1005.21
3294.97
1
1005.31
3301.09
1
1005.41
3307.23
1
1005.51
3313.4
1
1005.61
3319.62
1
1005.71
3325.85
1
1005.81
3332.09
1
1005.91
3338.35
1
1006.01
3344.63
1
1006.11
3350.92
1
1006.21
3357.21
1
1006.31
3363.53
1
1006.41
3369.85
1
1006.51
3376.19
1
1006.61
3382.36
1
1006.71
3388.72
1
1006.81
3395.09
1
1006.91
3401.48
1
1007.01
3407.85
1
1007.11
3414.25
1
1007.21
3420.66
1
1007.31
3427.09
1
1007.41
3433.51
1
1007.51
3439.92
1
1007.61
3446.36
1
1007.71
3452.82
1
1007.81
3459.27
1
1007.91
3465.69
1
1008.01
3472.13
1
1008.11
3478.59
1
1008.21
3485.07
1
1008.31
3491.48
1
1008.41
3497.9
1
1008.51
3504.34
1
1008.61
3510.8
1
1008.71
3517.21
1
1008.81
3523.58
1
1008.91
3529.97
1
1009.01
3536.38
1
1009.11
3542.78
1
1009.21
3549.05
1
1009.31
3555.35
1
1009.41
3561.67
1
1009.51
3568.02
1
1009.61
3574.18
1
1009.71
3580.33
1
1009.81
3586.51
1
1009.91
3592.71
1
1010.01
3598.78
1
1010.11
3604.71
1
1010.21
3610.67
1
1010.31
3616.66
1
1010.41
3622.61
1
1010.51
3628.23
1
1010.61
3633.89
1
1010.71
3639.57
1
1010.81
3645.28
1
1010.91
3650.59
1
1011.01
3655.82
1
1011.11
3661.07
1
1011.21
3666.36
1
1011.31
3671.39
1
1011.41
3676.05
1
1011.51
3680.74
1
1011.61
3685.47
1
1011.71
3690.17
1
1011.81
3694.09
1
1011.91
3698.04
1
1012.01
3702.04
1
1012.11
3706.07
1
1012.21
3709.35
1
1012.31
3712.37
1
1012.41
3715.43
1
1012.51
3718.54
1
1012.61
3721.21
1
1012.71
3723.06
1
1012.81
3724.96
1
1012.91
3726.92
1
1013.01
3728.93
1
1013.11
3729.37
1
1013.21
3729.87
1
1013.31
3730.44
1
1013.41
3731.07
1
1013.51
3730.56
1
1013.61
3729.43
1
1013.71
3728.37
1
1013.81
3727.39
1
1013.91
3725.88
1
1014.01
3722.88
1
1014.11
3719.97
1
1014.21
3717.16
1
1014.31
3714.45
1
1014.41
3709.61
1
1014.51
3704.68
1
1014.61
3699.88
1
1014.71
3695.2
1
1014.81
3689.16
1
1014.91
3682.1
1
1015.01
3675.2
1
1015.11
3668.45
1
1015.21
3661.3
1
1015.31
3652.12
1
1015.41
3643.14
1
1015.51
3634.37
1
1015.61
3625.84
1
1015.61
3625.84
1
1015.66
3620.66
1
1015.71
3615.11
1
1015.71
3615.11
1
1015.76
3609.62
1
1015.81
3604.19
1
1015.81
3604.19
1
1015.86
3598.85
1
1015.91
3593.58
1
1015.91
3593.58
1
1015.96
3588.38
1
1016.01
3583.28
1
1016.01
3583.28
1
1016.06
3578.25
1
1016.11
3571.92
1
1016.11
3571.92
1
1016.16
3565.64
1
1016.21
3559.45
1
1016.21
3559.45
1
1016.26
3553.38
1
1016.31
3547.41
1
1016.31
3547.41
1
1016.36
3541.56
1
1016.41
3535.81
1
1016.41
3535.81
1
1016.46
3530.19
1
1016.51
3524.34
1
1016.51
3524.34
1
1016.56
3517.6
1
1016.61
3511.01
1
1016.61
3511.01
1
1016.66
3504.55
1
1016.71
3498.24
1
1016.76
3492.09
1
1016.81
3486.1
1
1016.86
3480.28
1
1016.91
3474.63
1
1016.96
3468.5
1
1017.01
3461.97
1
1017.06
3455.65
1
1017.11
3449.55
1
1017.16
3443.66
1
1017.21
3438.03
1
1017.26
3432.65
1
1017.31
3427.55
1
1017.36
3422.73
1
1017.41
3417.27
1
1017.46
3411.93
1
1017.51
3406.89
1
1017.56
3402.17
1
1017.61
3397.8
1
1017.66
3393.78
1
1017.71
3390.14
1
1017.76
3386.89
1
1017.81
3383.95
1
1017.86
3380.66
1
1017.91
3377.82
1
1017.96
3375.46
1
1018.01
3373.58
1
1018.06
3372.22
1
1018.11
3371.39
1
1018.16
3371.11
1
1018.21
3371.43
1
1018.26
3372.1
1
1018.31
3373
1
1018.36
3374.57
1
1018.41
3376.8
1
1018.46
3379.75
1
1018.51
3383.45
1
1018.56
3387.95
1
1018.61
3393.25
1
1018.66
3399.36
1
1018.71
3406.04
1
1018.76
3413.45
1
1018.81
3421.76
1
1018.86
3431.01
1
1018.91
3441.2
1
1018.96
3452.41
1
1019.01
3464.61
1
1019.06
3477.86
1
1019.11
3492.19
1
1019.16
3507.44
1
1019.21
3523.9
1
1019.26
3541.56
1
1019.31
3560.42
1
1019.36
3580.48
1
1019.41
3601.75
1
1019.46
3624.26
1
1019.51
3648.01
1
1019.56
3673.04
1
1019.61
3699.4
1
1019.66
3727.03
1
1019.71
3755.98
1
1019.76
3786.21
1
1019.81
3817.74
1
1019.86
3850.68
1
1019.91
3884.92
1
1019.96
3920.46
1
1020.01
3957.41
1
1020.06
3995.78
1
1020.11
4035.38
1
1020.16
4076.21
1
1020.21
4118.22
1
1020.26
4161.53
1
1020.31
4206.02
1
1020.36
4251.59
1
1020.41
4298.2
1
1020.46
4346.19
1
1020.51
4395.27
1
1020.56
4445.24
1
1020.61
4496.01
1
1020.66
4547.51
1
1020.71
4599.65
1
1020.76
4651.63
1
1020.81
4704.83
1
1020.86
4758.52
1
1020.91
4813.16
1
1020.96
4868.01
1
1021.01
4923.03
1
1021.06
4978.03
1
1021.11
5032.97
1
1021.16
5087.71
1
1021.21
5142.11
1
1021.26
5196.1
1
1021.31
5249.77
1
1021.36
5303.31
1
1021.41
5356.04
1
1021.46
5407.82
1
1021.51
5458.61
1
1021.56
5508.13
1
1021.61
5556.41
1
1021.66
5603.24
1
1021.71
5648.51
1
1021.76
5692.75
1
1021.81
5735.41
1
1021.86
5776.08
1
1021.91
5814.66
1
1021.96
5851.07
1
1022.01
5885.27
1
1022.06
5916.99
1
1022.11
5946.31
1
1022.16
5973
1
1022.21
5997.95
1
1022.26
6020.28
1
1022.31
6039.67
1
1022.36
6056.29
1
1022.41
6069.86
1
1022.46
6080.45
1
1022.51
6087.81
1
1022.56
6091.92
1
1022.61
6093.25
1
1022.66
6092.13
1
1022.71
6087.92
1
1022.76
6080.6
1
1022.81
6070.03
1
1022.86
6056.48
1
1022.91
6039.72
1
1022.96
6019.98
1
1023.01
5997.27
1
1023.06
5972.05
1
1023.11
5944.62
1
1023.16
5914.08
1
1023.21
5880.87
1
1023.26
5845.08
1
1023.31
5806.76
1
1023.36
5766.23
1
1023.41
5723.32
1
1023.46
5678.44
1
1023.51
5632.41
1
1023.56
5584.79
1
1023.61
5535.69
1
1023.66
5484.99
1
1023.71
5433.15
1
1023.76
5380.23
1
1023.81
5326.34
1
1023.86
5271.83
1
1023.91
5216.77
1
1023.96
5162.51
1
1024.01
5108.2
1
1024.06
5054.09
1
1024.11
5000.49
1
1024.16
4947.42
1
1024.21
4895.34
1
1024.26
4844.33
1
1024.31
4794.67
1
1024.36
4746.97
1
1024.41
4701.6
1
1024.46
4658.34
1
1024.51
4617.33
1
1024.56
4578.85
1
1024.61
4543.15
1
1024.66
4510.37
1
1024.71
4480.83
1
1024.76
4454.66
1
1024.81
4432.65
1
1024.86
4414.77
1
1024.91
4400.88
1
1024.96
4391.18
1
1025.01
4385.83
1
1025.06
4385.02
1
1025.11
4388.87
1
1025.16
4397.65
1
1025.21
4411.38
1
1025.26
4430.93
1
1025.31
4455.73
1
1025.36
4485.79
1
1025.41
4521.23
1
1025.46
4562.05
1
1025.51
4608.35
1
1025.56
4660.11
1
1025.61
4717.33
1
1025.66
4780.21
1
1025.71
4849.05
1
1025.76
4923.35
1
1025.81
5003.01
1
1025.86
5087.93
1
1025.91
5178.01
1
1025.96
5273
1
1026.01
5372.92
1
1026.06
5477.43
1
1026.11
5586.72
1
1026.16
5700.64
1
1026.21
5818.49
1
1026.26
5940.2
1
1026.31
6065.31
1
1026.36
6193.61
1
1026.41
6324.81
1
1026.46
6458.48
1
1026.51
6594.51
1
1026.56
6732.71
1
1026.61
6872.49
1
1026.66
7013.32
1
1026.71
7154.68
1
1026.76
7296.37
1
1026.81
7437.73
1
1026.86
7578.44
1
1026.91
7718.05
1
1026.96
7856.03
1
1027.01
7992.59
1
1027.06
8126.58
1
1027.11
8257.69
1
1027.16
8385.44
1
1027.21
8509.3
1
1027.26
8628.95
1
1027.31
8743.8
1
1027.36
8853.55
1
1027.41
8957.88
1
1027.46
9056.52
1
1027.51
9148.9
1
1027.56
9234.5
1
1027.61
9313.1
1
1027.66
9384.3
1
1027.71
9447.8
1
1027.76
9503.41
1
1027.81
9550.78
1
1027.86
9590.02
1
1027.91
9620.76
1
1027.96
9642.69
1
1028.01
9655.72
1
1028.06
9659.65
1
1028.11
9654.5
1
1028.16
9640.16
1
1028.21
9616.61
1
1028.26
9583.92
1
1028.31
9542.38
1
1028.36
9491.87
1
1028.41
9432.38
1
1028.46
9364.1
1
1028.51
9287.19
1
1028.56
9201.79
1
1028.61
9108.21
1
1028.66
9006.6
1
1028.71
8897.33
1
1028.76
8780.91
1
1028.81
8657.33
1
1028.86
8527.02
1
1028.91
8390.24
1
1028.96
8247.41
1
1029.01
8098.89
1
1029.06
7945.05
1
1029.11
7786.37
1
1029.16
7623.31
1
1029.21
7456.33
1
1029.26
7285.73
1
1029.31
7111.88
1
1029.36
6935.27
1
1029.41
6756.28
1
1029.46
6575.34
1
1029.51
6392.88
1
1029.56
6209.28
1
1029.61
6025.16
1
1029.66
5840.77
1
1029.71
5656.43
1
1029.76
5472.53
1
1029.81
5289.4
1
1029.86
5107.42
1
1029.91
4926.87
1
1029.96
4748.1
1
1030.01
4571.38
1
1030.06
4397.2
1
1030.11
4225.62
1
1030.16
4056.86
1
1030.21
3891.17
1
1030.26
3728.74
1
1030.31
3569.74
1
1030.36
3414.36
1
1030.41
3262.73
1
1030.46
3115.04
1
1030.51
2971.48
1
1030.56
2832
1
1030.61
2696.69
1
1030.66
2565.6
1
1030.71
2438.78
1
1030.76
2316.25
1
1030.81
2198.03
1
1030.86
2084.12
1
1030.91
1974.59
1
1030.96
1869.4
1
1031.01
1768.44
1
1031.06
1671.65
1
1031.11
1579
1
1031.16
1490.4
1
1031.21
1405.79
1
1031.26
1325.07
1
1031.31
1248.16
1
1031.36
1175.09
1
1031.41
1105.65
1
1031.46
1039.72
1
1031.51
977.194
1
1031.56
917.957
1
1031.61
861.898
1
1031.66
808.897
1
1031.71
758.848
1
1031.76
711.643
1
1031.81
667.253
1
1031.86
625.461
1
1031.91
586.149
1
1031.96
549.212
1
1032.01
514.529
1
1032.06
481.996
1
1032.11
451.504
1
1032.16
422.945
1
1032.21
396.268
1
1032.26
371.378
1
1032.31
348.128
1
1032.36
326.423
1
1032.41
306.171
1
1032.46
287.293
1
1032.51
269.698
1
1032.56
253.312
1
1032.61
238.056
1
1032.66
223.92
1
1032.71
210.8
1
1032.76
198.602
1
1032.81
187.268
1
1032.86
176.736
1
1032.91
166.95
1
1032.96
157.86
1
1033.01
149.413
1
1033.06
141.566
1
1033.11
134.348
1
1033.16
127.642
1
1033.21
121.412
1
1033.26
115.618
1
1033.31
110.231
1
1033.36
105.216
1
1033.41
100.545
1
1033.46
96.1914
1
1033.51
92.1457
1
1033.56
88.4162
1
1033.61
84.9317
1
1033.66
81.6728
1
1033.71
78.6216
1
1033.76
75.7591
1
1033.81
73.0719
1
1033.86
70.5426
1
1033.91
68.1585
1
1033.96
65.9395
1
1034.01
63.8651
1
1034.06
61.9027
1
1034.11
60.0402
1
1034.16
58.2698
1
1034.21
56.5842
1
1034.26
54.975
1
1034.31
53.4391
1
1034.36
51.969
1
1034.41
50.6038
1
1034.46
49.3059
1
1034.51
48.0632
1
1034.56
46.8749
1
1034.61
45.7351
1
1034.66
44.6413
1
1034.71
43.5894
1
1034.76
42.5744
1
1034.81
41.6001
1
1034.86
40.6927
1
1034.91
39.8132
1
1034.96
38.9585
1
1035.01
38.1257
1
1035.06
37.3142
1
1035.11
36.5206
1
1035.16
35.7446
1
1035.21
34.9841
1
1035.26
34.2531
1
1035.31
33.5583
1
1035.36
32.8755
1
1035.41
32.2049
1
1035.46
31.5453
1
1035.51
30.8959
1
1035.56
30.2571
1
1035.61
29.627
1
1035.66
29.2777
1
1035.71
28.6764
1
1035.76
28.0885
1
1035.81
27.5043
1
1035.86
26.9227
1
1035.91
26.3449
1
1035.96
25.7699
1
1036.01
25.1978
1
1036.06
24.6291
1
1036.11
24.0629
1
1036.16
23.564
1
1036.21
23.098
1
1036.26
22.6347
1
1036.31
22.1745
1
1036.36
21.7165
1
1036.41
21.2618
1
1036.46
20.8093
1
1036.51
20.3594
1
1036.56
19.9186
1
1036.61
19.4983
1
1036.66
19.0809
1
1036.71
18.6655
1
1036.76
18.2524
1
1036.81
17.8418
1
1036.86
17.4331
1
1036.91
17.0271
1
1036.96
16.6229
1
1037.01
16.2326
1
1037.06
15.8546
1
1037.11
15.4784
1
1037.16
15.1207
1
1037.21
14.7727
1
1037.26
14.4268
1
1037.31
14.0829
1
1037.36
13.7406
1
1037.41
13.4005
1
1037.46
13.0777
1
1037.51
12.7601
1
1037.56
12.4444
1
1037.61
12.1301
1
1037.66
11.8179
1
1037.71
11.5072
1
1037.76
11.1983
1
1037.81
10.891
1
1037.86
10.5869
1
1037.91
10.2996
1
1037.96
10.0137
1
1038.01
9.72941
1
1038.06
9.44658
1
1038.11
9.16511
1
1038.16
8.894
1
1038.21
8.62657
1
1038.26
8.36072
1
1038.31
8.10193
1
1038.36
7.85343
1
1038.41
7.60653
1
1038.46
7.36073
1
1038.51
7.11642
1
1038.56
6.8733
1
1038.61
6.63138
1
1038.66
6.39085
1
1038.71
6.15134
1
1038.76
5.92198
1
1038.81
5.69796
1
1038.86
5.47508
1
1038.91
5.25347
1
1038.96
5.0328
1
1039.01
4.98139
1
1039.06
4.76187
1
1039.11
4.54273
1
1039.16
4.32925
1
1039.21
4.12757
1
1039.26
3.92698
1
1039.31
0
1
1039.36
0
1
1039.41
0
1
1039.46
0
1
1039.51
0
1
1039.56
0
1
1039.61
0
1
1039.66
0
1
1039.71
0
1
1039.76
0
1
1039.81
0
1
1039.86
0
1
1039.91
0
1
1039.96
0
1
1040.01
0
1
1040.06
0
1
1040.11
0
1
1040.16
0
1
1040.21
0
1
1040.26
0
1
1040.31
0
1
1040.36
0
1
1040.41
0
1
1040.46
0
1
1040.51
0
1
1040.56
0
1
1040.61
0
1
&TiO2
TiO2 lineshape
0
0
0
0
0
0
0
11
Casa Info Follows
0
0
0
0

PCA Coefs = 41279.5, -30.0911, 
CasaXP11_irregular-March172021151537
c:\users\mark\owncloud\muelheim group\projects\tio2\analyzed data\experiment 2019-03-28_ti sheet_cec-1303 - vector analysis.vms
C:\Users\pielsticker\Downloads\Ti\EX209_CEC303 Ti slow oxidation - vectro fit - irregular.vms
CasaXP2
XPS
1e+037
Al
1486.61
1e+037
1e+037
1e+037
1e+037
1e+037
FAT
1e+037
1e+037
1e+037
1e+037
1e+037
1e+037
1e+037
1e+037
Ti
2p
-1
3
Kinetic Energy
eV
Intensity
d
transmission
d
pulse counting
1
1
1e+037
1e+037
1e+037
1e+037
2
MFP Exponent
d
0
ESCAPE DEPTH TYPE
d
1
2406
0
1
0
1
0
1
986.41
0
1
986.51
0
1
986.61
0
1
986.71
768.707
1
986.81
760.553
1
986.91
768.435
1
987.01
755.652
1
987.11
767.617
1
987.21
776.181
1
987.31
795.763
1
987.41
770.688
1
987.51
763.262
1
987.61
746.497
1
987.71
771.299
1
987.81
794.081
1
987.91
798.462
1
988.01
796.086
1
988.11
750.701
1
988.21
764.244
1
988.31
762.703
1
988.41
767.642
1
988.51
809.875
1
988.61
782.735
1
988.71
802.762
1
988.81
781.754
1
988.91
797.075
1
989.01
782.132
1
989.11
772.809
1
989.21
791.69
1
989.31
768.177
1
989.41
753.308
1
989.51
789.669
1
989.61
800.739
1
989.71
779.037
1
989.81
796.667
1
989.91
788.664
1
990.01
781.431
1
990.11
763.133
1
990.21
761.93
1
990.31
770.168
1
990.41
781.989
1
990.51
774.174
1
990.61
783.781
1
990.71
788.367
1
990.81
773.493
1
990.91
805.974
1
991.01
771.994
1
991.11
777.448
1
991.21
789.282
1
991.31
794.388
1
991.41
776.115
1
991.51
783.245
1
991.61
791.547
1
991.71
791.152
1
991.81
811.094
1
991.91
769.968
1
992.01
772.96
1
992.11
796.65
1
992.21
826.989
1
992.31
810.03
1
992.41
818.963
1
992.51
785.408
1
992.61
800.716
1
992.71
788.478
1
992.81
804.164
1
992.91
812.978
1
993.01
822.622
1
993.11
819.208
1
993.21
829.078
1
993.31
792.38
1
993.41
821.361
1
993.51
807.064
1
993.61
809.673
1
993.71
829.266
1
993.81
816.075
1
993.91
811.888
1
994.01
813.957
1
994.11
821.861
1
994.21
833.57
1
994.31
837.714
1
994.41
849.28
1
994.51
857.286
1
994.61
833.549
1
994.71
845.806
1
994.81
836.24
1
994.91
858.359
1
995.01
862.683
1
995.11
844.704
1
995.21
842.124
1
995.31
876.151
1
995.41
850.852
1
995.51
870.002
1
995.61
873.725
1
995.71
872.576
1
995.81
872.903
1
995.91
878.814
1
996.01
867.431
1
996.11
865.276
1
996.21
866.368
1
996.31
877.735
1
996.41
899.413
1
996.51
886.844
1
996.61
869.567
1
996.71
902.856
1
996.81
905.33
1
996.91
874.966
1
997.01
869.403
1
997.11
865.949
1
997.21
886.148
1
997.31
882.212
1
997.41
885.397
1
997.51
898.615
1
997.61
902.991
1
997.71
883.438
1
997.81
896.5
1
997.91
893.677
1
998.01
877.466
1
998.11
900.29
1
998.21
880.029
1
998.31
903.615
1
998.41
893.494
1
998.51
880.647
1
998.61
893.543
1
998.71
873.733
1
998.81
900.388
1
998.91
916.252
1
999.01
902.081
1
999.11
905.374
1
999.21
886.856
1
999.31
911.213
1
999.41
905.309
1
999.51
902.687
1
999.61
913.305
1
999.71
904.045
1
999.81
896.12
1
999.91
897.236
1
1000.01
923.679
1
1000.11
926.681
1
1000.21
926.073
1
1000.31
925.526
1
1000.41
907.704
1
1000.51
896.397
1
1000.61
910.067
1
1000.71
926.249
1
1000.81
920.429
1
1000.91
911.683
1
1001.01
929.617
1
1001.11
950.296
1
1001.21
954.222
1
1001.31
958.371
1
1001.41
948.537
1
1001.51
937.444
1
1001.61
926.521
1
1001.71
914.447
1
1001.81
938.226
1
1001.91
942.783
1
1002.01
945.337
1
1002.11
920.58
1
1002.21
939.262
1
1002.31
943.013
1
1002.41
943.763
1
1002.51
963.942
1
1002.61
929.992
1
1002.71
921.771
1
1002.81
946.545
1
1002.91
951.811
1
1003.01
971.317
1
1003.11
932.785
1
1003.21
938.39
1
1003.31
948.212
1
1003.41
955.917
1
1003.51
950.44
1
1003.61
933.546
1
1003.71
937.391
1
1003.81
934.345
1
1003.91
945.101
1
1004.01
931.364
1
1004.11
934.292
1
1004.21
938.488
1
1004.31
931.659
1
1004.41
941.812
1
1004.51
926.828
1
1004.61
935.58
1
1004.71
914.475
1
1004.81
926.205
1
1004.91
933.151
1
1005.01
894.257
1
1005.11
922.632
1
1005.21
947.099
1
1005.31
942.994
1
1005.41
962.008
1
1005.51
926.796
1
1005.61
950.836
1
1005.71
940.143
1
1005.81
956.34
1
1005.91
956.727
1
1006.01
975.317
1
1006.11
940.591
1
1006.21
947.456
1
1006.31
981.819
1
1006.41
970.555
1
1006.51
1008.37
1
1006.61
1008.11
1
1006.71
1013.6
1
1006.81
996.31
1
1006.91
1014.27
1
1007.01
987.97
1
1007.11
1015.57
1
1007.21
1041.04
1
1007.31
1024.19
1
1007.41
1046.25
1
1007.51
1080.99
1
1007.61
1052.36
1
1007.71
1079.45
1
1007.81
1069.35
1
1007.91
1086.71
1
1008.01
1099.49
1
1008.11
1098.97
1
1008.21
1082.77
1
1008.31
1103.98
1
1008.41
1124.29
1
1008.51
1094.43
1
1008.61
1092.18
1
1008.71
1119.73
1
1008.81
1111.18
1
1008.91
1100.64
1
1009.01
1074.02
1
1009.11
1081.55
1
1009.21
1084.81
1
1009.31
1072.29
1
1009.41
1064.08
1
1009.51
1068.03
1
1009.61
1042.68
1
1009.71
1048.27
1
1009.81
1047.75
1
1009.91
1041.99
1
1010.01
1032.26
1
1010.11
1010.81
1
1010.21
1010.5
1
1010.31
981.444
1
1010.41
994.358
1
1010.51
1016.22
1
1010.61
1023.54
1
1010.71
996.998
1
1010.81
986.877
1
1010.91
990.319
1
1011.01
977.67
1
1011.11
974.063
1
1011.21
990.486
1
1011.31
981.065
1
1011.41
994.019
1
1011.51
977.353
1
1011.61
990.329
1
1011.71
997.831
1
1011.81
976.829
1
1011.91
1023.17
1
1012.01
1048.11
1
1012.11
1057
1
1012.21
1054.53
1
1012.31
1056.94
1
1012.41
1065.11
1
1012.51
1098.57
1
1012.61
1081.96
1
1012.71
1088.82
1
1012.81
1090.24
1
1012.91
1110.64
1
1013.01
1156.04
1
1013.11
1154.69
1
1013.21
1149.48
1
1013.31
1178.23
1
1013.41
1206.08
1
1013.51
1235.84
1
1013.61
1212.04
1
1013.71
1236.37
1
1013.81
1260.29
1
1013.91
1227.79
1
1014.01
1267.25
1
1014.11
1278.21
1
1014.21
1301.9
1
1014.31
1268.86
1
1014.41
1282.91
1
1014.51
1257.63
1
1014.61
1268.26
1
1014.71
1240.09
1
1014.81
1212.45
1
1014.91
1218.87
1
1015.01
1192.01
1
1015.11
1171.19
1
1015.21
1155.17
1
1015.31
1122.54
1
1015.41
1101.79
1
1015.41
1067.41
1
1015.46
1052.35
1
1015.51
1067.29
1
1015.51
1059.44
1
1015.56
1042.15
1
1015.61
1030.58
1
1015.61
1039.02
1
1015.66
1026.23
1
1015.71
1052.82
1
1015.71
1026.07
1
1015.76
1013.77
1
1015.81
1016.71
1
1015.81
984.758
1
1015.86
1003.17
1
1015.91
978.853
1
1015.91
983.593
1
1015.96
992.657
1
1016.01
963.914
1
1016.01
997.976
1
1016.06
945.589
1
1016.11
962.513
1
1016.11
958.563
1
1016.16
978.607
1
1016.21
965.235
1
1016.21
925.061
1
1016.26
931.285
1
1016.31
950.873
1
1016.31
924.092
1
1016.36
914.095
1
1016.41
887.906
1
1016.41
924.448
1
1016.46
892.4
1
1016.51
887.492
1
1016.56
895.285
1
1016.61
879.719
1
1016.66
885.384
1
1016.71
879.291
1
1016.76
836.024
1
1016.81
856.757
1
1016.86
867.567
1
1016.91
879.182
1
1016.96
853.334
1
1017.01
840.365
1
1017.06
844.006
1
1017.11
838.737
1
1017.16
830.23
1
1017.21
813.429
1
1017.26
808.999
1
1017.31
819.672
1
1017.36
805.464
1
1017.41
810.392
1
1017.46
784.829
1
1017.51
797.662
1
1017.56
777.953
1
1017.61
778.964
1
1017.66
772.96
1
1017.71
800.196
1
1017.76
780.125
1
1017.81
749.445
1
1017.86
759.949
1
1017.91
760.85
1
1017.96
766.089
1
1018.01
761.03
1
1018.06
775.909
1
1018.11
783.447
1
1018.16
786.74
1
1018.21
764.45
1
1018.26
755.3
1
1018.31
777.982
1
1018.36
771.937
1
1018.41
777.032
1
1018.46
772.377
1
1018.51
741.676
1
1018.56
789.933
1
1018.61
762.665
1
1018.66
745.3
1
1018.71
752.13
1
1018.76
759.794
1
1018.81
774.162
1
1018.86
794.029
1
1018.91
786.274
1
1018.96
802.151
1
1019.01
783.227
1
1019.06
801.558
1
1019.11
787.6
1
1019.16
821.694
1
1019.21
830.725
1
1019.26
819.337
1
1019.31
865.198
1
1019.36
844.184
1
1019.41
845.633
1
1019.46
854.093
1
1019.51
863.046
1
1019.56
874.417
1
1019.61
913.775
1
1019.66
896.864
1
1019.71
925.225
1
1019.76
932.491
1
1019.81
971.033
1
1019.86
966.216
1
1019.91
972.082
1
1019.96
1029.16
1
1020.01
1031.97
1
1020.06
1049.6
1
1020.11
1079.9
1
1020.16
1095.11
1
1020.21
1142.77
1
1020.26
1185.78
1
1020.31
1234.21
1
1020.36
1275.05
1
1020.41
1301.29
1
1020.46
1354.89
1
1020.51
1402.01
1
1020.56
1465.91
1
1020.61
1505.27
1
1020.66
1542.42
1
1020.71
1564.52
1
1020.76
1643.28
1
1020.81
1699.57
1
1020.86
1778.37
1
1020.91
1802.46
1
1020.96
1858.86
1
1021.01
1969.59
1
1021.06
2010.58
1
1021.11
2061.9
1
1021.16
2155.96
1
1021.21
2171.67
1
1021.26
2266.3
1
1021.31
2257.47
1
1021.36
2311
1
1021.41
2367.68
1
1021.46
2426.42
1
1021.51
2451.52
1
1021.56
2486.56
1
1021.61
2485.79
1
1021.66
2516.09
1
1021.71
2550.8
1
1021.76
2526.8
1
1021.81
2501.27
1
1021.86
2536.75
1
1021.91
2497.04
1
1021.96
2492.25
1
1022.01
2489.07
1
1022.06
2395.72
1
1022.11
2401.55
1
1022.16
2346.97
1
1022.21
2306.04
1
1022.26
2289
1
1022.31
2227.36
1
1022.36
2153.49
1
1022.41
2067.64
1
1022.46
1998.69
1
1022.51
1950.63
1
1022.56
1902.71
1
1022.61
1827.21
1
1022.66
1728.78
1
1022.71
1672.22
1
1022.76
1609.68
1
1022.81
1578.01
1
1022.86
1559.44
1
1022.91
1434.8
1
1022.96
1366.92
1
1023.01
1348.1
1
1023.06
1290.44
1
1023.11
1235.91
1
1023.16
1223.03
1
1023.21
1158.64
1
1023.26
1156.28
1
1023.31
1128.58
1
1023.36
1089.29
1
1023.41
1032.33
1
1023.46
1023.36
1
1023.51
996.215
1
1023.56
948.428
1
1023.61
937.285
1
1023.66
924.02
1
1023.71
904.001
1
1023.76
911.682
1
1023.81
860.988
1
1023.86
840.295
1
1023.91
830.683
1
1023.96
806.105
1
1024.01
814.335
1
1024.06
797.877
1
1024.11
784.465
1
1024.16
798.57
1
1024.21
784.869
1
1024.26
780.672
1
1024.31
778.737
1
1024.36
761.738
1
1024.41
758.673
1
1024.46
741.007
1
1024.51
751.087
1
1024.56
759.106
1
1024.61
748.745
1
1024.66
740.552
1
1024.71
748.907
1
1024.76
754.767
1
1024.81
759.631
1
1024.86
754.448
1
1024.91
746.531
1
1024.96
762.516
1
1025.01
778.526
1
1025.06
758.886
1
1025.11
759.716
1
1025.16
770.626
1
1025.21
777.027
1
1025.26
784.108
1
1025.31
786.215
1
1025.36
784.578
1
1025.41
791.529
1
1025.46
817.551
1
1025.51
813.631
1
1025.56
831.026
1
1025.61
823.737
1
1025.66
843.837
1
1025.71
847.126
1
1025.76
845.529
1
1025.81
871.589
1
1025.86
897.405
1
1025.91
931.456
1
1025.96
943.584
1
1026.01
975.757
1
1026.06
1029.64
1
1026.11
1058.22
1
1026.16
1123.13
1
1026.21
1166.62
1
1026.26
1235.35
1
1026.31
1291.99
1
1026.36
1404.8
1
1026.41
1511.6
1
1026.46
1620.58
1
1026.51
1744.35
1
1026.56
1887.18
1
1026.61
2048.32
1
1026.66
2250.15
1
1026.71
2474.29
1
1026.76
2792.44
1
1026.81
3041.37
1
1026.86
3301.67
1
1026.91
3616.82
1
1026.96
3968.96
1
1027.01
4302.5
1
1027.06
4599.79
1
1027.11
4948.24
1
1027.16
5336.66
1
1027.21
5592.03
1
1027.26
5891.08
1
1027.31
6117.37
1
1027.36
6401.69
1
1027.41
6544.88
1
1027.46
6616.65
1
1027.51
6705.58
1
1027.56
6693.94
1
1027.61
6634.5
1
1027.66
6522.28
1
1027.71
6363.31
1
1027.76
6104.02
1
1027.81
5828.6
1
1027.86
5495.3
1
1027.91
5100.96
1
1027.96
4818.28
1
1028.01
4440.83
1
1028.06
4085.26
1
1028.11
3670.51
1
1028.16
3341.96
1
1028.21
2989.35
1
1028.26
2685.24
1
1028.31
2373.67
1
1028.36
2111.04
1
1028.41
1882.81
1
1028.46
1636.92
1
1028.51
1449.51
1
1028.56
1278.47
1
1028.61
1138.66
1
1028.66
1008.49
1
1028.71
880.955
1
1028.76
784.214
1
1028.81
710.739
1
1028.86
639.553
1
1028.91
593.143
1
1028.96
528.411
1
1029.01
493.952
1
1029.06
460.395
1
1029.11
430.007
1
1029.16
407.676
1
1029.21
375.74
1
1029.26
349.579
1
1029.31
307.498
1
1029.36
298.685
1
1029.41
289.607
1
1029.46
274.535
1
1029.51
261.454
1
1029.56
258.402
1
1029.61
241.45
1
1029.66
226.133
1
1029.71
195.994
1
1029.76
196.912
1
1029.81
178.111
1
1029.86
182.602
1
1029.91
171.642
1
1029.96
139.931
1
1030.01
148.703
1
1030.06
140.236
1
1030.11
122.799
1
1030.16
127.547
1
1030.21
123.658
1
1030.26
117.159
1
1030.31
113.168
1
1030.36
103.043
1
1030.41
89.9611
1
1030.46
79.7678
1
1030.51
82.6402
1
1030.56
78.3794
1
1030.61
71.4293
1
1030.66
76.4138
1
1030.71
75.3822
1
1030.76
78.9603
1
1030.81
65.8195
1
1030.86
59.9979
1
1030.91
53.6695
1
1030.96
50.609
1
1031.01
45.9551
1
1031.06
58.2979
1
1031.11
45.7672
1
1031.16
45.6667
1
1031.21
37.6953
1
1031.26
34.8926
1
1031.31
45.1279
1
1031.36
38.4188
1
1031.41
43.102
1
1031.46
41.5193
1
1031.51
41.8022
1
1031.56
37.3304
1
1031.61
34.3535
1
1031.66
38.0149
1
1031.71
41.0285
1
1031.76
38.7568
1
1031.81
24.1728
1
1031.86
26.7467
1
1031.91
24.8709
1
1031.96
25.2497
1
1032.01
30.3581
1
1032.06
32.8652
1
1032.11
26.7379
1
1032.16
17.5069
1
1032.21
27.4104
1
1032.26
31.9776
1
1032.31
35.0028
1
1032.36
28.3184
1
1032.41
18.7488
1
1032.46
16.2122
1
1032.51
31.8477
1
1032.56
28.849
1
1032.61
28.1205
1
1032.66
19.5003
1
1032.71
22.1481
1
1032.76
14.6862
1
1032.81
23.383
1
1032.86
23.817
1
1032.91
18.631
1
1032.96
16.5573
1
1033.01
12.2888
1
1033.06
14.5476
1
1033.11
16.5876
1
1033.16
14.5942
1
1033.21
13.8555
1
1033.26
14.5433
1
1033.31
7.00553
1
1033.36
19.7495
1
1033.41
9.75463
1
1033.46
16.6813
1
1033.51
10.5411
1
1033.56
11.4887
1
1033.61
9.85089
1
1033.66
21.479
1
1033.71
15.0159
1
1033.76
22.6288
1
1033.81
16.9822
1
1033.86
17.9488
1
1033.91
10.2562
1
1033.96
17.5299
1
1034.01
14.6918
1
1034.06
18.5697
1
1034.11
18.4523
1
1034.16
17.5792
1
1034.21
20.0307
1
1034.26
24.9494
1
1034.31
12.6893
1
1034.36
7.72395
1
1034.41
4.38198
1
1034.46
6.31105
1
1034.51
13.7239
1
1034.56
19.994
1
1034.61
12.7116
1
1034.66
10.1567
1
1034.71
12.2761
1
1034.76
14.2381
1
1034.81
4.75145
1
1034.86
-0.0982386
1
1034.91
11.4553
1
1034.96
8.98422
1
1035.01
19.1661
1
1035.06
11.0729
1
1035.11
14.8176
1
1035.16
14.128
1
1035.21
12.2612
1
1035.26
12.6718
1
1035.31
13.668
1
1035.36
5.73352
1
1035.41
6.80692
1
1035.46
6.00817
1
1035.51
3.57823
1
1035.56
6.26545
1
1035.61
10.8517
1
1035.66
8.11417
1
1035.71
8.48454
1
1035.76
6.19727
1
1035.81
9.99754
1
1035.86
-0.595702
1
1035.91
3.32511
1
1035.96
2.16431
1
1036.01
5.30515
1
1036.06
6.33019
1
1036.11
-0.15255
1
1036.16
-0.160988
1
1036.21
4.10473
1
1036.26
-1.07666
1
1036.31
1.58446
1
1036.36
-0.212021
1
1036.41
12.2091
1
1036.46
6.92326
1
1036.51
14.8672
1
1036.56
6.40831
1
1036.61
4.71866
1
1036.66
7.10513
1
1036.71
9.98924
1
1036.76
1.929
1
1036.81
6.98157
1
1036.86
3.66599
1
1036.91
8.02528
1
1036.96
-0.623079
1
1037.01
-3.58963
1
1037.06
-4.89371
1
1037.11
3.92434
1
1037.16
8.29572
1
1037.21
8.52046
1
1037.26
10.3075
1
1037.31
6.96935
1
1037.36
-0.523693
1
1037.41
-6.73835
1
1037.46
1.34514
1
1037.51
4.97275
1
1037.56
1.15262
1
1037.61
-2.7992
1
1037.66
9.64657
1
1037.71
5.40891
1
1037.76
6.80002
1
1037.81
-3.69174
1
1037.86
4.72394
1
1037.91
2.41516
1
1037.96
2.16941
1
1038.01
3.25827
1
1038.06
6.17699
1
1038.11
-0.126762
1
1038.16
9.74501
1
1038.21
2.44671
1
1038.26
13.5869
1
1038.31
0.257914
1
1038.36
2.84957
1
1038.41
3.89457
1
1038.46
-3.92537
1
1038.51
-5.8306
1
1038.56
-1.07815
1
1038.61
4.5545
1
1038.66
9.49284
1
1038.71
0.264434
1
1038.76
1.19787
1
1038.81
1.67889
1
1038.86
-0.411538
1
1038.91
3.29361
1
1038.96
3.60995
1
1039.01
7.03935
1
1039.06
2.46095
1
1039.11
3.16899
1
1039.16
-3.42998
1
1039.21
7.20019
1
1039.26
-6.66532
1
1039.31
-2.25084
1
1039.36
0.0238542
1
1039.41
-2.53558
1
1039.46
1.21449
1
1039.51
-4.11686
1
1039.56
0.731545
1
1039.61
2.61504
1
1039.66
-1.29684
1
1039.71
-3.20836
1
1039.76
7.83649
1
1039.81
4.38263
1
1039.86
6.31627
1
1039.91
6.05281
1
1039.96
4.76111
1
1040.01
3.3128
1
1040.06
7.77774
1
1040.11
1.48788
1
1040.16
7.11285
1
1040.21
2.66528
1
1040.26
0.887167
1
1040.31
2.751
1
1040.36
-10.7387
1
1040.41
0
1
Ti2p
Ti metal fit
0
0
0
0
0
0
0
13
Casa Info Follows
0
0
1
CASA region (*Ti 2p*) (*Min Limits*) 987.96 1039.26 7.7123335 2 0 0 0 -1643 0 0 (*Ti 2p*) 47.8784 0 7.81
1
CASA comp (*Ti metal*) (*&TI_MET*) Area 1.0023163 1e-020 472189.94 -1 1 MFWHM 1 1 1 -1 1 Position 1013.2961 1012.9961 1013.5961 -1 1 RSF 7.7123335 MASS 47.8784 INDEX 0 (*Ti0*) CONST (**) UNCORRECTEDRSF 7.81

PCA Coefs = 54487.5, 23477.3, -4356.52, 108.165, 
PCA Coefs = 54487.5, 23477.3, -4356.52, 108.165, -1011.67, 
c:\users\mark\owncloud\muelheim group\projects\tio2\analyzed data\experiment 2019-03-28_ti sheet_cec-1303 - vector analysis.vms
C:\Users\pielsticker\Downloads\Ti\EX209_CEC303 Ti slow oxidation - vectro fit - irregular.vms
C:\Users\pielsticker\Downloads\Ti\references_irregular.vms
XPS
1e+037
Al
1486.61
1e+037
1e+037
1e+037
1e+037
1e+037
FAT
1e+037
1e+037
1e+037
1e+037
1e+037
1e+037
1e+037
1e+037
Ti
2p
-1
3
Kinetic Energy
eV
Intensity
d
transmission
d
pulse counting
1
1
1e+037
1e+037
1e+037
1e+037
3
MFP Exponent
d
0
ESCAPE DEPTH TYPE
d
1
PROPAGATION_CONVERGED
d
1
2406
0
1
0
1
0
1
986.61
1380.79
1
986.71
1379.61
1
986.81
1342.46
1
986.91
1357.98
1
987.01
1384.78
1
987.11
1338.23
1
987.21
1302.73
1
987.31
1369.8
1
987.41
1340.63
1
987.51
1326.81
1
987.61
1308.49
1
987.71
1297.46
1
987.81
1366.09
1
987.91
1417.54
1
988.01
1429.56
1
988.11
1338.43
1
988.21
1307.35
1
988.31
1331.1
1
988.41
1342.77
1
988.51
1352.87
1
988.61
1334.16
1
988.71
1322.33
1
988.81
1336.04
1
988.91
1337.25
1
989.01
1291.69
1
989.11
1331.42
1
989.21
1362.36
1
989.31
1367.73
1
989.41
1321.77
1
989.51
1331.19
1
989.61
1337.59
1
989.71
1354.37
1
989.81
1337.41
1
989.91
1414.58
1
990.01
1375.48
1
990.11
1329.94
1
990.21
1340.48
1
990.31
1299.66
1
990.41
1329.48
1
990.51
1336.35
1
990.61
1374.2
1
990.71
1329.05
1
990.81
1364.6
1
990.91
1275.77
1
991.01
1403.71
1
991.11
1391.23
1
991.21
1385.94
1
991.31
1408.94
1
991.41
1378.4
1
991.51
1311.37
1
991.61
1388.73
1
991.71
1357.91
1
991.81
1398.56
1
991.91
1318.21
1
992.01
1324.53
1
992.11
1390.02
1
992.21
1299.01
1
992.31
1376.27
1
992.41
1368.45
1
992.51
1384.67
1
992.61
1327.26
1
992.71
1345.15
1
992.81
1363.08
1
992.91
1365.75
1
993.01
1307.44
1
993.11
1363.56
1
993.21
1293.28
1
993.31
1339.81
1
993.41
1331.02
1
993.51
1325.31
1
993.61
1339.19
1
993.71
1382.03
1
993.81
1270.13
1
993.91
1311.58
1
994.01
1363.6
1
994.11
1378.17
1
994.21
1289.73
1
994.31
1438.27
1
994.41
1295.38
1
994.51
1371.09
1
994.61
1381.04
1
994.71
1391.69
1
994.81
1354.23
1
994.91
1386.57
1
995.01
1303.35
1
995.11
1321.43
1
995.21
1369.64
1
995.31
1438.72
1
995.41
1409.51
1
995.51
1401.62
1
995.61
1421.9
1
995.71
1412.13
1
995.81
1429.47
1
995.91
1360.03
1
996.01
1401.67
1
996.11
1377.03
1
996.21
1353.26
1
996.31
1442.57
1
996.41
1318.8
1
996.51
1292.64
1
996.61
1475.21
1
996.71
1394.63
1
996.81
1382.38
1
996.91
1497.62
1
997.01
1445.13
1
997.11
1444.74
1
997.21
1423.46
1
997.31
1449.53
1
997.41
1437.41
1
997.51
1436.63
1
997.61
1459.79
1
997.71
1452.47
1
997.81
1374.02
1
997.91
1365.02
1
998.01
1425.56
1
998.11
1477.99
1
998.21
1395.59
1
998.31
1349.93
1
998.41
1406.85
1
998.51
1442.93
1
998.61
1426.26
1
998.71
1425.03
1
998.81
1448.98
1
998.91
1417.89
1
999.01
1363.7
1
999.11
1357.04
1
999.21
1372.19
1
999.31
1451.86
1
999.41
1440.96
1
999.51
1447.06
1
999.61
1472.97
1
999.71
1420.74
1
999.81
1469.9
1
999.91
1469.79
1
1000.01
1410.93
1
1000.11
1469.51
1
1000.21
1427.66
1
1000.31
1474.49
1
1000.41
1484.39
1
1000.51
1499.16
1
1000.61
1439.94
1
1000.71
1501.69
1
1000.81
1473.67
1
1000.91
1424.29
1
1001.01
1510.63
1
1001.11
1439.25
1
1001.21
1504.56
1
1001.31
1449.63
1
1001.41
1499.57
1
1001.51
1516.59
1
1001.61
1470.99
1
1001.71
1446.03
1
1001.81
1491.14
1
1001.91
1482.6
1
1002.01
1458.25
1
1002.11
1464.51
1
1002.21
1528.15
1
1002.31
1599.73
1
1002.41
1519.57
1
1002.51
1464.08
1
1002.61
1500.98
1
1002.71
1491.64
1
1002.81
1506.13
1
1002.91
1493.78
1
1003.01
1490.32
1
1003.11
1562.09
1
1003.21
1609.35
1
1003.31
1533.6
1
1003.41
1496.24
1
1003.51
1515.64
1
1003.61
1520.53
1
1003.71
1584.04
1
1003.81
1479.16
1
1003.91
1498.88
1
1004.01
1597.33
1
1004.11
1576.33
1
1004.21
1609.96
1
1004.31
1589.92
1
1004.41
1588.85
1
1004.51
1571.07
1
1004.61
1564.75
1
1004.71
1641.64
1
1004.81
1614.72
1
1004.91
1545.26
1
1005.01
1584.59
1
1005.11
1642.09
1
1005.21
1624.18
1
1005.31
1587.97
1
1005.41
1664.19
1
1005.51
1622.77
1
1005.61
1631.17
1
1005.71
1685.78
1
1005.81
1639.74
1
1005.91
1667.52
1
1006.01
1660.09
1
1006.11
1692.51
1
1006.21
1740.76
1
1006.31
1741.68
1
1006.41
1670.29
1
1006.51
1597.06
1
1006.61
1699.18
1
1006.71
1670.17
1
1006.81
1693.94
1
1006.91
1620.58
1
1007.01
1651.87
1
1007.11
1653.77
1
1007.21
1699.66
1
1007.31
1772.5
1
1007.41
1760.24
1
1007.51
1777.14
1
1007.61
1729.47
1
1007.71
1707.44
1
1007.81
1685.22
1
1007.91
1823.56
1
1008.01
1773.63
1
1008.11
1798.18
1
1008.21
1658.13
1
1008.31
1712.2
1
1008.41
1712.79
1
1008.51
1786.61
1
1008.61
1802.67
1
1008.71
1800.84
1
1008.81
1845.9
1
1008.91
1794.35
1
1009.01
1683.68
1
1009.11
1746.38
1
1009.21
1813.12
1
1009.31
1744.82
1
1009.41
1813.56
1
1009.51
1879.87
1
1009.61
1808.8
1
1009.71
1876.88
1
1009.81
1852.78
1
1009.91
1811.09
1
1010.01
1835.17
1
1010.11
1720.69
1
1010.21
1870.48
1
1010.31
1845.77
1
1010.41
1890.29
1
1010.51
1887.68
1
1010.61
1915.28
1
1010.71
1897.2
1
1010.81
1843.1
1
1010.91
1882.49
1
1011.01
1923.08
1
1011.11
1869.6
1
1011.21
1931.1
1
1011.31
1872.84
1
1011.41
1856.21
1
1011.51
1754.08
1
1011.61
1854.61
1
1011.71
1836.8
1
1011.81
1858.82
1
1011.91
1916.85
1
1012.01
1958.7
1
1012.11
1946.96
1
1012.21
1843.17
1
1012.31
1901.22
1
1012.41
1979.69
1
1012.51
1873.84
1
1012.61
1820.68
1
1012.71
1919.9
1
1012.81
1879.35
1
1012.91
1933.45
1
1013.01
1916.62
1
1013.11
1825.82
1
1013.21
1825.83
1
1013.31
1934.56
1
1013.41
1951.73
1
1013.51
1848.74
1
1013.61
1941.73
1
1013.71
2018.38
1
1013.81
1930.07
1
1013.91
1920.36
1
1014.01
2013.36
1
1014.11
1984.06
1
1014.21
2007.5
1
1014.31
1948.81
1
1014.41
1946.49
1
1014.51
1951.41
1
1014.61
1930.67
1
1014.71
1969.69
1
1014.81
2028.56
1
1014.91
1991.82
1
1015.01
1942.89
1
1015.11
1909.56
1
1015.21
1915.99
1
1015.31
1955.57
1
1015.41
2015.53
1
1015.51
1852.58
1
1015.61
1963.3
1
1015.61
1933.49
1
1015.66
1941.26
1
1015.71
1965.15
1
1015.71
1877.62
1
1015.76
1971.51
1
1015.81
1973.09
1
1015.81
1768.22
1
1015.86
2021.45
1
1015.91
1933.58
1
1015.91
1947.46
1
1015.96
1956.42
1
1016.01
1980.6
1
1016.01
1869.75
1
1016.06
1855.78
1
1016.11
1938.97
1
1016.11
1872.9
1
1016.16
1999.16
1
1016.21
1972.71
1
1016.21
1929.9
1
1016.26
1973.12
1
1016.31
1848.81
1
1016.31
1885.8
1
1016.36
1938.1
1
1016.41
2018.31
1
1016.41
1808.37
1
1016.46
1981.29
1
1016.51
1823.87
1
1016.51
1951.69
1
1016.56
1940.62
1
1016.61
1889.25
1
1016.61
1812.92
1
1016.66
1904.31
1
1016.71
1895.27
1
1016.76
1935.61
1
1016.81
1942.68
1
1016.86
1929.89
1
1016.91
1882.81
1
1016.96
1902.12
1
1017.01
1901.64
1
1017.06
1902.15
1
1017.11
1889.43
1
1017.16
1937.09
1
1017.21
1926.96
1
1017.26
1910.96
1
1017.31
1844.52
1
1017.36
1896.03
1
1017.41
1863.37
1
1017.46
1931.4
1
1017.51
1887.82
1
1017.56
1865.67
1
1017.61
1912.49
1
1017.66
1895.03
1
1017.71
1966.08
1
1017.76
1927.63
1
1017.81
1876.22
1
1017.86
1850.19
1
1017.91
1906.06
1
1017.96
1938.18
1
1018.01
1950.47
1
1018.06
1817.53
1
1018.11
1766.07
1
1018.16
1759.62
1
1018.21
1838.78
1
1018.26
1838.98
1
1018.31
1809.91
1
1018.36
1803.35
1
1018.41
1828.37
1
1018.46
1830.74
1
1018.51
1836.04
1
1018.56
1808.17
1
1018.61
1865.96
1
1018.66
1815.38
1
1018.71
1796.13
1
1018.76
1857.29
1
1018.81
1805.1
1
1018.86
1890.62
1
1018.91
1837.8
1
1018.96
1821.53
1
1019.01
1816.02
1
1019.06
1822.96
1
1019.11
1846.53
1
1019.16
1843.97
1
1019.21
1816.55
1
1019.26
1844.37
1
1019.31
1751.26
1
1019.36
1801.92
1
1019.41
1833.22
1
1019.46
1792.86
1
1019.51
1794.61
1
1019.56
1781.12
1
1019.61
1772.53
1
1019.66
1779.03
1
1019.71
1816.7
1
1019.76
1731.66
1
1019.81
1753.41
1
1019.86
1744.02
1
1019.91
1781.79
1
1019.96
1769.55
1
1020.01
1744.31
1
1020.06
1728.57
1
1020.11
1709.92
1
1020.16
1750.91
1
1020.21
1729.59
1
1020.26
1691.85
1
1020.31
1661.76
1
1020.36
1641.75
1
1020.41
1691.15
1
1020.46
1696.6
1
1020.51
1641.03
1
1020.56
1664.82
1
1020.61
1685.23
1
1020.66
1734.4
1
1020.71
1743.33
1
1020.76
1725.8
1
1020.81
1641.08
1
1020.86
1659.57
1
1020.91
1642.85
1
1020.96
1653.85
1
1021.01
1642.46
1
1021.06
1596.89
1
1021.11
1655.18
1
1021.16
1631.72
1
1021.21
1677.89
1
1021.26
1615.46
1
1021.31
1575.95
1
1021.36
1635.74
1
1021.41
1637.82
1
1021.46
1621.95
1
1021.51
1624.47
1
1021.56
1602.28
1
1021.61
1617.64
1
1021.66
1661.08
1
1021.71
1601.39
1
1021.76
1597.96
1
1021.81
1634.78
1
1021.86
1515.82
1
1021.91
1529.38
1
1021.96
1589.72
1
1022.01
1631.87
1
1022.06
1600.49
1
1022.11
1609.53
1
1022.16
1621.86
1
1022.21
1618.58
1
1022.26
1588.22
1
1022.31
1611.16
1
1022.36
1538.82
1
1022.41
1555.75
1
1022.46
1623.54
1
1022.51
1596.04
1
1022.56
1598.46
1
1022.61
1625.18
1
1022.66
1625.41
1
1022.71
1559.8
1
1022.76
1590.72
1
1022.81
1603
1
1022.86
1625.45
1
1022.91
1614.94
1
1022.96
1616.31
1
1023.01
1646.62
1
1023.06
1605.99
1
1023.11
1574.2
1
1023.16
1653.07
1
1023.21
1616.84
1
1023.26
1643.5
1
1023.31
1681.81
1
1023.36
1687.59
1
1023.41
1643.74
1
1023.46
1699.56
1
1023.51
1685.63
1
1023.56
1623.89
1
1023.61
1709.65
1
1023.66
1685.35
1
1023.71
1678.15
1
1023.76
1712.26
1
1023.81
1734.06
1
1023.86
1753.33
1
1023.91
1749.23
1
1023.96
1685.39
1
1024.01
1678.21
1
1024.06
1703.71
1
1024.11
1667.25
1
1024.16
1723.33
1
1024.21
1737.96
1
1024.26
1747.16
1
1024.31
1784.91
1
1024.36
1834.63
1
1024.41
1847.48
1
1024.46
1857.75
1
1024.51
1841.84
1
1024.56
1830
1
1024.61
1880.13
1
1024.66
1914.53
1
1024.71
1958.79
1
1024.76
1980.26
1
1024.81
1929.9
1
1024.86
1946.76
1
1024.91
2011.96
1
1024.96
1987.89
1
1025.01
1956.88
1
1025.06
2011.1
1
1025.11
1984.67
1
1025.16
2039.99
1
1025.21
2056.17
1
1025.26
2128.09
1
1025.31
2070.19
1
1025.36
2128.97
1
1025.41
2115.4
1
1025.46
2262.59
1
1025.51
2320.48
1
1025.56
2286.48
1
1025.61
2379.47
1
1025.66
2412.44
1
1025.71
2474.45
1
1025.76
2484.5
1
1025.81
2593.62
1
1025.86
2650.32
1
1025.91
2727.02
1
1025.96
2862.62
1
1026.01
2860.44
1
1026.06
3055.64
1
1026.11
3137.41
1
1026.16
3219.96
1
1026.21
3305.52
1
1026.26
3447.77
1
1026.31
3530.05
1
1026.36
3615.49
1
1026.41
3658.58
1
1026.46
3777.02
1
1026.51
3966.76
1
1026.56
4018.36
1
1026.61
4079.39
1
1026.66
4113.2
1
1026.71
4028.53
1
1026.76
4037.47
1
1026.81
3963.71
1
1026.86
3850.84
1
1026.91
3698.38
1
1026.96
3619.54
1
1027.01
3422.72
1
1027.06
3176.2
1
1027.11
3153.17
1
1027.16
3044.57
1
1027.21
2829.88
1
1027.26
2589.45
1
1027.31
2474.68
1
1027.36
2354.17
1
1027.41
2254.55
1
1027.46
2028.81
1
1027.51
2031.41
1
1027.56
1822.23
1
1027.61
1832.39
1
1027.66
1757.17
1
1027.71
1626.62
1
1027.76
1673.17
1
1027.81
1630.39
1
1027.86
1465.44
1
1027.91
1470.7
1
1027.96
1448.93
1
1028.01
1361.87
1
1028.06
1306.54
1
1028.11
1325.99
1
1028.16
1288.78
1
1028.21
1338
1
1028.26
1353.09
1
1028.31
1321.05
1
1028.36
1320.89
1
1028.41
1233.07
1
1028.46
1219.36
1
1028.51
1236.26
1
1028.56
1258.57
1
1028.61
1202.57
1
1028.66
1213.91
1
1028.71
1188.95
1
1028.76
1237.24
1
1028.81
1213.76
1
1028.86
1175.42
1
1028.91
1218.24
1
1028.96
1226.62
1
1029.01
1264.76
1
1029.06
1243.46
1
1029.11
1216.39
1
1029.16
1275.79
1
1029.21
1290.32
1
1029.26
1184.19
1
1029.31
1207.88
1
1029.36
1225.3
1
1029.41
1256.9
1
1029.46
1249.17
1
1029.51
1235.28
1
1029.56
1277.07
1
1029.61
1330.8
1
1029.66
1323.01
1
1029.71
1324.2
1
1029.76
1344.62
1
1029.81
1308.33
1
1029.86
1333.98
1
1029.91
1324.21
1
1029.96
1308.42
1
1030.01
1352.92
1
1030.06
1376.73
1
1030.11
1373.89
1
1030.16
1427.71
1
1030.21
1426.87
1
1030.26
1481.12
1
1030.31
1499.48
1
1030.36
1465.18
1
1030.41
1526.2
1
1030.46
1531.63
1
1030.51
1530.68
1
1030.56
1558.82
1
1030.61
1578.27
1
1030.66
1606.92
1
1030.71
1658.45
1
1030.76
1627.62
1
1030.81
1707.29
1
1030.86
1783.53
1
1030.91
1789.62
1
1030.96
1818.66
1
1031.01
1794.29
1
1031.06
1841.96
1
1031.11
1842.23
1
1031.16
1919.9
1
1031.21
1996.49
1
1031.26
2097.07
1
1031.31
2098.6
1
1031.36
2159.06
1
1031.41
2191.78
1
1031.46
2365.46
1
1031.51
2365.36
1
1031.56
2361.12
1
1031.61
2539.57
1
1031.66
2612.76
1
1031.71
2578.6
1
1031.76
2815.58
1
1031.81
2917.59
1
1031.86
3025.62
1
1031.91
3160.55
1
1031.96
3234.93
1
1032.01
3381.58
1
1032.06
3530.59
1
1032.11
3778.39
1
1032.16
3966.65
1
1032.21
4160
1
1032.26
4551.55
1
1032.31
4784.78
1
1032.36
5131.12
1
1032.41
5563.98
1
1032.46
5837.79
1
1032.51
6216.12
1
1032.56
6564.46
1
1032.61
6849.11
1
1032.66
7123.46
1
1032.71
7348.28
1
1032.76
7566.48
1
1032.81
7540.43
1
1032.86
7522.43
1
1032.91
7300.02
1
1032.96
7014.46
1
1033.01
6650.6
1
1033.06
6298.39
1
1033.11
5814.3
1
1033.16
5241.1
1
1033.21
4719.32
1
1033.26
4082.49
1
1033.31
3539.61
1
1033.36
2979.52
1
1033.41
2604.1
1
1033.46
2080.86
1
1033.51
1789.26
1
1033.56
1507.07
1
1033.61
1208.84
1
1033.66
1004.87
1
1033.71
840.511
1
1033.76
696.477
1
1033.81
639.592
1
1033.86
534.113
1
1033.91
442.715
1
1033.96
403.622
1
1034.01
325.708
1
1034.06
310.052
1
1034.11
273.502
1
1034.16
251.865
1
1034.21
224.698
1
1034.26
218.158
1
1034.31
189.398
1
1034.36
152.771
1
1034.41
145.057
1
1034.46
158.48
1
1034.51
171.61
1
1034.56
155.34
1
1034.61
126.164
1
1034.66
119.394
1
1034.71
98.7856
1
1034.76
104.416
1
1034.81
102.57
1
1034.86
87.9027
1
1034.91
102.569
1
1034.96
64.2042
1
1035.01
86.0091
1
1035.06
83.7235
1
1035.11
65.2265
1
1035.16
66.9629
1
1035.21
81.7472
1
1035.26
54.5349
1
1035.31
72.9072
1
1035.36
62.729
1
1035.41
54.6963
1
1035.46
52.9836
1
1035.51
51.4427
1
1035.56
66.2454
1
1035.61
27.7958
1
1035.66
22.6612
1
1035.71
47.0201
1
1035.76
48.3473
1
1035.81
31.6776
1
1035.86
42.2973
1
1035.91
39.7689
1
1035.96
43.744
1
1036.01
46.7088
1
1036.06
23.7669
1
1036.11
21.9353
1
1036.16
30.339
1
1036.21
24.5338
1
1036.26
42.0066
1
1036.31
32.2861
1
1036.36
32.8994
1
1036.41
16.5913
1
1036.46
22.0684
1
1036.51
33.4338
1
1036.56
8.30744
1
1036.61
-0.320683
1
1036.66
18.5145
1
1036.71
1.25567
1
1036.76
25.7189
1
1036.81
17.9205
1
1036.86
26.8709
1
1036.91
25.6579
1
1036.96
6.53318
1
1037.01
4.06964
1
1037.06
-1.81192
1
1037.11
-0.175084
1
1037.16
-0.188564
1
1037.21
-11.2699
1
1037.26
-15.6917
1
1037.31
-6.23708
1
1037.36
-6.73301
1
1037.41
-0.235253
1
1037.46
10.3945
1
1037.51
10.0545
1
1037.56
-19.4511
1
1037.61
-5.57347
1
1037.66
-8.28048
1
1037.71
-10.6555
1
1037.76
15.8692
1
1037.81
1.42326
1
1037.86
10.7452
1
1037.91
-15.8064
1
1037.96
4.76975
1
1038.01
-3.04375
1
1038.06
8.44116
1
1038.11
19.9889
1
1038.16
-3.29813
1
1038.21
-3.13742
1
1038.26
9.13695
1
1038.31
-9.16297
1
1038.36
-11.0692
1
1038.41
-16.0218
1
1038.46
-9.66303
1
1038.51
-21.0405
1
1038.56
-8.54283
1
1038.61
4.97534
1
1038.66
-16.1839
1
1038.71
-15.0884
1
1038.76
2.18459
1
1038.81
16.2773
1
1038.86
-4.55229
1
1038.91
-0.530202
1
1038.96
9.59498
1
1039.01
-7.12591
1
1039.06
-11.1653
1
1039.11
-11.6532
1
1039.16
-11.1526
1
1039.21
7.07497
1
1039.26
-12.3676
1
1039.31
-12.9418
1
1039.36
-25.59
1
1039.41
-22.8096
1
1039.46
-4.09079
1
1039.51
-17.3984
1
1039.56
-4.18499
1
1039.61
-8.62249
1
1039.66
-10.5458
1
1039.71
-3.7872
1
1039.76
-11.0384
1
1039.81
-12.3709
1
1039.86
-22.5307
1
1039.91
-13.1936
1
1039.96
-24.3836
1
1040.01
-37.2227
1
1040.06
3.18044
1
1040.11
3.24155
1
1040.16
3.11073
1
1040.21
0
1
1040.26
0
1
1040.31
0
1
1040.36
0
1
1040.41
0
1
1040.46
0
1
1040.51
0
1
1040.56
0
1
1040.61
0
1
Ti2p
TiO fit
0
0
0
0
0
0
0
15
Casa Info Follows
0
0
1
CASA region (*Ti 2p*) (*Min Limits*) 987.96 1039.26 7.7123335 2 0 0 0 -1643 0 0 (*Ti 2p*) 47.8784 0 7.81
1
CASA comp (*TiO*) (*&TIO*) Area 0.99809292 1e-020 472189.94 -1 1 MFWHM 1 1 1 -1 1 Position 1013.9144 1013.6144 1014.2144 -1 1 RSF 7.7123335 MASS 47.8784 INDEX 1 (*TiO*) CONST (**) UNCORRECTEDRSF 7.81

PCA Coefs = 41396.7, -3191.99, 1103.12, 387.504, 
PCA Coefs = 41396.7, -3191.99, 1103.12, 387.504, -363.953, 
PCA Coefs = 41439, -2585.94, 1104.79, -371.422, -359.987, 128.966, 
c:\users\mark\owncloud\muelheim group\projects\tio2\analyzed data\experiment 2019-03-28_ti sheet_cec-1303 - vector analysis.vms
c:\users\mark\owncloud\muelheim group\projects\tio2\analyzed data\experiment 2019-03-28_ti sheet_cec-1303 - vector analysis.vms
C:\Users\pielsticker\Downloads\Ti\EX209_CEC303 Ti slow oxidation - vectro fit - irregular.vms
C:\Users\pielsticker\Downloads\Ti\references_irregular.vms
XPS
1e+037
Al
1486.61
1e+037
1e+037
1e+037
1e+037
1e+037
FAT
1e+037
1e+037
1e+037
1e+037
1e+037
1e+037
1e+037
1e+037
Ti
2p
-1
3
Kinetic Energy
eV
Intensity
d
transmission
d
pulse counting
1
1
1e+037
1e+037
1e+037
1e+037
3
MFP Exponent
d
0
ESCAPE DEPTH TYPE
d
1
PROPAGATION_CONVERGED
d
1
2406
0
1
0
1
0
1
986.61
0
1
986.71
0
1
986.81
0
1
986.91
0
1
987.01
0
1
987.11
0
1
987.21
0
1
987.31
0
1
987.41
427.081
1
987.51
418.506
1
987.61
421.294
1
987.71
440.148
1
987.81
443.528
1
987.91
430.838
1
988.01
445.739
1
988.11
424.025
1
988.21
434.13
1
988.31
418.792
1
988.41
428.149
1
988.51
454.731
1
988.61
439.937
1
988.71
440.084
1
988.81
432.384
1
988.91
432.304
1
989.01
440.641
1
989.11
446.848
1
989.21
426.341
1
989.31
427.43
1
989.41
433.208
1
989.51
424.875
1
989.61
432.054
1
989.71
420.255
1
989.81
436.188
1
989.91
437.574
1
990.01
442.909
1
990.11
437.73
1
990.21
421.943
1
990.31
412.513
1
990.41
435.891
1
990.51
431.311
1
990.61
432.78
1
990.71
433.572
1
990.81
418.188
1
990.91
409.864
1
991.01
422.085
1
991.11
426.173
1
991.21
444.271
1
991.31
414.74
1
991.41
436.211
1
991.51
426.44
1
991.61
422.63
1
991.71
419.722
1
991.81
433.338
1
991.91
436.796
1
992.01
436.845
1
992.11
430.264
1
992.21
409.348
1
992.31
408.522
1
992.41
437.968
1
992.51
445.551
1
992.61
438.706
1
992.71
442.301
1
992.81
436.554
1
992.91
427.755
1
993.01
444.831
1
993.11
456.361
1
993.21
439.465
1
993.31
450.223
1
993.41
444.027
1
993.51
436.61
1
993.61
442.322
1
993.71
448.84
1
993.81
443.012
1
993.91
447.565
1
994.01
442.503
1
994.11
431.631
1
994.21
441.927
1
994.31
439.397
1
994.41
446.213
1
994.51
436.637
1
994.61
431.379
1
994.71
439.383
1
994.81
437.913
1
994.91
437.081
1
995.01
451.356
1
995.11
441.987
1
995.21
433.982
1
995.31
435.758
1
995.41
438.365
1
995.51
440.249
1
995.61
441.327
1
995.71
470.201
1
995.81
461.681
1
995.91
465.133
1
996.01
457.167
1
996.11
452.422
1
996.21
450.82
1
996.31
465.086
1
996.41
461.236
1
996.51
459.164
1
996.61
447.345
1
996.71
449.258
1
996.81
459.59
1
996.91
458.529
1
997.01
473.17
1
997.11
477.211
1
997.21
459.326
1
997.31
460.033
1
997.41
459.628
1
997.51
445.237
1
997.61
452.9
1
997.71
462.703
1
997.81
459.284
1
997.91
451.872
1
998.01
456.31
1
998.11
469.161
1
998.21
467.634
1
998.31
475.462
1
998.41
474.394
1
998.51
456.623
1
998.61
469.981
1
998.71
480.575
1
998.81
487.905
1
998.91
476.11
1
999.01
472.079
1
999.11
488.889
1
999.21
482.388
1
999.31
473.36
1
999.41
485.498
1
999.51
489.987
1
999.61
486.287
1
999.71
499.989
1
999.81
499.325
1
999.91
503.847
1
1000.01
495.847
1
1000.11
472.305
1
1000.21
495.686
1
1000.31
470.454
1
1000.41
456.9
1
1000.51
470.1
1
1000.61
477.155
1
1000.71
488.566
1
1000.81
501.371
1
1000.91
487.255
1
1001.01
491.032
1
1001.11
485.732
1
1001.21
504.469
1
1001.31
498.971
1
1001.41
487.565
1
1001.51
495.287
1
1001.61
492.023
1
1001.71
515.751
1
1001.81
524.072
1
1001.91
521.562
1
1002.01
511.741
1
1002.11
520.4
1
1002.21
503.72
1
1002.31
510.643
1
1002.41
513.259
1
1002.51
516.99
1
1002.61
517.098
1
1002.71
511.597
1
1002.81
514.602
1
1002.91
518.202
1
1003.01
511.706
1
1003.11
525.184
1
1003.21
517.952
1
1003.31
517.622
1
1003.41
524.306
1
1003.51
508.334
1
1003.61
516.65
1
1003.71
520.695
1
1003.81
527.955
1
1003.91
529.331
1
1004.01
533.794
1
1004.11
532.939
1
1004.21
517.49
1
1004.31
527.727
1
1004.41
538.381
1
1004.51
533.308
1
1004.61
521.561
1
1004.71
544.611
1
1004.81
527.324
1
1004.91
532.448
1
1005.01
570.213
1
1005.11
563.09
1
1005.21
541.792
1
1005.31
542.99
1
1005.41
559.25
1
1005.51
545.665
1
1005.61
543.146
1
1005.71
526.3
1
1005.81
537.531
1
1005.91
572.365
1
1006.01
555.441
1
1006.11
549.727
1
1006.21
551.249
1
1006.31
548.66
1
1006.41
551.261
1
1006.51
563.665
1
1006.61
576.201
1
1006.71
577.334
1
1006.81
567.664
1
1006.91
553.853
1
1007.01
558.785
1
1007.11
584.367
1
1007.21
581.728
1
1007.31
565.461
1
1007.41
575.372
1
1007.51
562.378
1
1007.61
563.918
1
1007.71
558.304
1
1007.81
554.263
1
1007.91
548.855
1
1008.01
560.082
1
1008.11
587.028
1
1008.21
594.404
1
1008.31
582.535
1
1008.41
572.581
1
1008.51
570.811
1
1008.61
557.279
1
1008.71
573.391
1
1008.81
568.03
1
1008.91
560.161
1
1009.01
607.207
1
1009.11
597.167
1
1009.21
578.718
1
1009.31
585.585
1
1009.41
598.421
1
1009.51
580.41
1
1009.61
576.951
1
1009.71
584.575
1
1009.81
563.585
1
1009.91
563.558
1
1010.01
597.413
1
1010.11
592.348
1
1010.21
598.689
1
1010.31
591.048
1
1010.41
575.647
1
1010.51
562.049
1
1010.61
584.689
1
1010.71
613.504
1
1010.81
604.43
1
1010.91
590.102
1
1011.01
598.673
1
1011.11
597.336
1
1011.21
592.662
1
1011.31
580.7
1
1011.41
584.009
1
1011.51
612.752
1
1011.61
604.978
1
1011.71
591.136
1
1011.81
582.187
1
1011.91
581.801
1
1012.01
583.193
1
1012.11
607.547
1
1012.21
625.368
1
1012.31
616.005
1
1012.41
610.544
1
1012.51
606.481
1
1012.61
612.489
1
1012.71
611.253
1
1012.81
586.851
1
1012.91
623.68
1
1013.01
621.663
1
1013.11
618.895
1
1013.21
600.995
1
1013.31
597.049
1
1013.41
591.93
1
1013.51
595.137
1
1013.61
603.223
1
1013.71
596.239
1
1013.81
587.085
1
1013.91
584.361
1
1014.01
619.158
1
1014.11
618.527
1
1014.21
619.188
1
1014.31
606.433
1
1014.41
602.386
1
1014.51
600.324
1
1014.61
589.299
1
1014.71
577.321
1
1014.81
579.679
1
1014.91
594.519
1
1015.01
606.455
1
1015.11
603.592
1
1015.21
592.769
1
1015.31
592.667
1
1015.41
597.347
1
1015.51
598.124
1
1015.61
613.572
1
1015.61
613.572
1
1015.66
606.643
1
1015.71
596.493
1
1015.71
596.493
1
1015.76
589.147
1
1015.81
588.693
1
1015.81
588.693
1
1015.86
579.432
1
1015.91
581.863
1
1015.91
581.863
1
1015.96
590.761
1
1016.01
606.759
1
1016.01
606.759
1
1016.06
609.806
1
1016.11
596.144
1
1016.11
596.144
1
1016.16
592.706
1
1016.21
598.696
1
1016.21
598.696
1
1016.26
611.189
1
1016.31
606.286
1
1016.31
606.286
1
1016.36
599.476
1
1016.41
595.682
1
1016.41
595.682
1
1016.46
596.852
1
1016.51
597.099
1
1016.51
597.099
1
1016.56
598.501
1
1016.61
605.691
1
1016.61
605.691
1
1016.66
610.47
1
1016.71
593.859
1
1016.76
587.774
1
1016.81
596.403
1
1016.86
606.607
1
1016.91
594.915
1
1016.96
590.241
1
1017.01
587.636
1
1017.06
593.328
1
1017.11
606.761
1
1017.16
614.115
1
1017.21
607.689
1
1017.26
606.91
1
1017.31
604.424
1
1017.36
602.25
1
1017.41
596.921
1
1017.46
598.695
1
1017.51
596.989
1
1017.56
616.919
1
1017.61
630.31
1
1017.66
622.391
1
1017.71
607.099
1
1017.76
595.336
1
1017.81
587.203
1
1017.86
595.983
1
1017.91
605.75
1
1017.96
615.677
1
1018.01
625.619
1
1018.06
613.386
1
1018.11
605.926
1
1018.16
617.972
1
1018.21
625.144
1
1018.26
622.84
1
1018.31
627.313
1
1018.36
632.35
1
1018.41
632.086
1
1018.46
627.843
1
1018.51
633.444
1
1018.56
634.983
1
1018.61
644.948
1
1018.66
640.885
1
1018.71
636.764
1
1018.76
635.98
1
1018.81
641.379
1
1018.86
635.21
1
1018.91
637.855
1
1018.96
640.268
1
1019.01
636.099
1
1019.06
639.37
1
1019.11
652.623
1
1019.16
650.936
1
1019.21
641.447
1
1019.26
633.369
1
1019.31
632.682
1
1019.36
655.528
1
1019.41
663.565
1
1019.46
641.491
1
1019.51
635.212
1
1019.56
654.307
1
1019.61
660.336
1
1019.66
646.061
1
1019.71
633.939
1
1019.76
636.468
1
1019.81
654.36
1
1019.86
662.07
1
1019.91
664.706
1
1019.96
657.652
1
1020.01
659.696
1
1020.06
670.068
1
1020.11
657.005
1
1020.16
642.071
1
1020.21
639.889
1
1020.26
652.869
1
1020.31
647.107
1
1020.36
646.274
1
1020.41
650.887
1
1020.46
642.982
1
1020.51
650.078
1
1020.56
652.998
1
1020.61
647.973
1
1020.66
644.93
1
1020.71
642.48
1
1020.76
645.896
1
1020.81
641.294
1
1020.86
639.946
1
1020.91
621.76
1
1020.96
612.865
1
1021.01
633.689
1
1021.06
650.912
1
1021.11
641.391
1
1021.16
635.865
1
1021.21
642.629
1
1021.26
630.395
1
1021.31
625.183
1
1021.36
619.537
1
1021.41
597.361
1
1021.46
601.796
1
1021.51
611.948
1
1021.56
614.391
1
1021.61
603.574
1
1021.66
597.574
1
1021.71
611.698
1
1021.76
624.68
1
1021.81
606.544
1
1021.86
602.935
1
1021.91
598.509
1
1021.96
596.883
1
1022.01
611.599
1
1022.06
620.342
1
1022.11
613.523
1
1022.16
604.326
1
1022.21
590.066
1
1022.26
600.494
1
1022.31
606.824
1
1022.36
609.488
1
1022.41
613.648
1
1022.46
625.965
1
1022.51
630.209
1
1022.56
631.693
1
1022.61
631.426
1
1022.66
622.286
1
1022.71
616.234
1
1022.76
624.195
1
1022.81
617.276
1
1022.86
615.601
1
1022.91
612.854
1
1022.96
614.498
1
1023.01
619.12
1
1023.06
616.276
1
1023.11
616.27
1
1023.16
627.49
1
1023.21
630.329
1
1023.26
633.982
1
1023.31
642.111
1
1023.36
653.565
1
1023.41
661.154
1
1023.46
658.673
1
1023.51
649.041
1
1023.56
654.01
1
1023.61
653.472
1
1023.66
659.6
1
1023.71
672.917
1
1023.76
696.757
1
1023.81
699.632
1
1023.86
700.605
1
1023.91
722.662
1
1023.96
721.115
1
1024.01
707.336
1
1024.06
716.577
1
1024.11
724.502
1
1024.16
727.607
1
1024.21
738.511
1
1024.26
744.571
1
1024.31
762.687
1
1024.36
782.149
1
1024.41
786.671
1
1024.46
807.825
1
1024.51
843.475
1
1024.56
852.08
1
1024.61
861.424
1
1024.66
889.127
1
1024.71
917.206
1
1024.76
947.463
1
1024.81
972.005
1
1024.86
998.212
1
1024.91
1028.03
1
1024.96
1074.52
1
1025.01
1085.06
1
1025.06
1104.14
1
1025.11
1127.84
1
1025.16
1146.89
1
1025.21
1180.85
1
1025.26
1204.02
1
1025.31
1205.46
1
1025.36
1228.78
1
1025.41
1242.28
1
1025.46
1263.49
1
1025.51
1289.05
1
1025.56
1297.93
1
1025.61
1306.35
1
1025.66
1306.82
1
1025.71
1311.04
1
1025.76
1297.79
1
1025.81
1283.7
1
1025.86
1305.61
1
1025.91
1318.77
1
1025.96
1311.91
1
1026.01
1291.32
1
1026.06
1278.79
1
1026.11
1281.26
1
1026.16
1258.34
1
1026.21
1239.21
1
1026.26
1226.52
1
1026.31
1203.76
1
1026.36
1180.8
1
1026.41
1158.37
1
1026.46
1107.57
1
1026.51
1078.51
1
1026.56
1053.42
1
1026.61
1020.15
1
1026.66
966.384
1
1026.71
928.974
1
1026.76
914.815
1
1026.81
889.388
1
1026.86
853.786
1
1026.91
824.393
1
1026.96
813.064
1
1027.01
792
1
1027.06
751.093
1
1027.11
714.097
1
1027.16
710.105
1
1027.21
695.528
1
1027.26
684.222
1
1027.31
685.561
1
1027.36
684.72
1
1027.41
668.26
1
1027.46
627.587
1
1027.51
631.47
1
1027.56
658.623
1
1027.61
637.027
1
1027.66
642.104
1
1027.71
640.778
1
1027.76
633.631
1
1027.81
634.57
1
1027.86
628.873
1
1027.91
618.156
1
1027.96
612.279
1
1028.01
599.723
1
1028.06
604.039
1
1028.11
629.057
1
1028.16
642.082
1
1028.21
620.889
1
1028.26
622.357
1
1028.31
629.837
1
1028.36
619.895
1
1028.41
622.267
1
1028.46
622.023
1
1028.51
620.128
1
1028.56
625.951
1
1028.61
631.855
1
1028.66
614.199
1
1028.71
614.635
1
1028.76
617.21
1
1028.81
598.893
1
1028.86
610.767
1
1028.91
628.933
1
1028.96
626.956
1
1029.01
613.245
1
1029.06
614.639
1
1029.11
626.144
1
1029.16
625.542
1
1029.21
628.511
1
1029.26
632.868
1
1029.31
627.299
1
1029.36
619.494
1
1029.41
627.466
1
1029.46
630.058
1
1029.51
638.279
1
1029.56
659.878
1
1029.61
656.9
1
1029.66
646.594
1
1029.71
664.871
1
1029.76
683.659
1
1029.81
682.119
1
1029.86
681.045
1
1029.91
691.803
1
1029.96
706.242
1
1030.01
711.438
1
1030.06
706.374
1
1030.11
722.547
1
1030.16
762.85
1
1030.21
779.71
1
1030.26
796.785
1
1030.31
818.387
1
1030.36
819.516
1
1030.41
841.578
1
1030.46
865.099
1
1030.51
869.894
1
1030.56
900.825
1
1030.61
953.821
1
1030.66
976.082
1
1030.71
1014.67
1
1030.76
1053.07
1
1030.81
1098.15
1
1030.86
1141.38
1
1030.91
1180.55
1
1030.96
1223.69
1
1031.01
1290.65
1
1031.06
1350.41
1
1031.11
1413.9
1
1031.16
1470.94
1
1031.21
1522.83
1
1031.26
1606.21
1
1031.31
1683.65
1
1031.36
1750.5
1
1031.41
1805.37
1
1031.46
1844.15
1
1031.51
1882.09
1
1031.56
1911.79
1
1031.61
1937.36
1
1031.66
1935.1
1
1031.71
1902.05
1
1031.76
1867.2
1
1031.81
1820.49
1
1031.86
1769.3
1
1031.91
1733.01
1
1031.96
1703.26
1
1032.01
1674.2
1
1032.06
1627.17
1
1032.11
1594.21
1
1032.16
1564.9
1
1032.21
1532.43
1
1032.26
1480
1
1032.31
1412.55
1
1032.36
1341.55
1
1032.41
1276.98
1
1032.46
1208.53
1
1032.51
1103.07
1
1032.56
991.97
1
1032.61
898.867
1
1032.66
801.315
1
1032.71
693.039
1
1032.76
607.106
1
1032.81
524.306
1
1032.86
430.964
1
1032.91
360.997
1
1032.96
316.891
1
1033.01
265.384
1
1033.06
218.663
1
1033.11
184.599
1
1033.16
163.276
1
1033.21
146.727
1
1033.26
128.282
1
1033.31
115.72
1
1033.36
102.206
1
1033.41
84.3599
1
1033.46
76.3419
1
1033.51
73.258
1
1033.56
68.9179
1
1033.61
65.1807
1
1033.66
56.2314
1
1033.71
49.6746
1
1033.76
52.1579
1
1033.81
49.7747
1
1033.86
46.0503
1
1033.91
36.4411
1
1033.96
29.5619
1
1034.01
32.4556
1
1034.06
32.9876
1
1034.11
31.6081
1
1034.16
31.8027
1
1034.21
33.807
1
1034.26
35.8312
1
1034.31
29.7257
1
1034.36
24.3449
1
1034.41
21.9194
1
1034.46
25.1065
1
1034.51
30.7035
1
1034.56
28.6187
1
1034.61
21.3205
1
1034.66
24.2862
1
1034.71
23.786
1
1034.76
21.619
1
1034.81
17.8064
1
1034.86
16.3473
1
1034.91
18.0522
1
1034.96
20.8006
1
1035.01
20.7355
1
1035.06
19.2328
1
1035.11
13.6358
1
1035.16
14.2518
1
1035.21
12.7428
1
1035.26
11.468
1
1035.31
9.25257
1
1035.36
11.8099
1
1035.41
17.8825
1
1035.46
22.5386
1
1035.51
21.1059
1
1035.56
18.5313
1
1035.61
16.1824
1
1035.66
14.0897
1
1035.71
17.0204
1
1035.76
14.6167
1
1035.81
9.60597
1
1035.86
9.16277
1
1035.91
11.145
1
1035.96
9.83835
1
1036.01
12.7076
1
1036.06
14.9464
1
1036.11
16.3768
1
1036.16
13.8208
1
1036.21
9.75438
1
1036.26
6.88693
1
1036.31
6.69721
1
1036.36
8.23845
1
1036.41
7.37087
1
1036.46
6.43268
1
1036.51
5.21011
1
1036.56
4.52699
1
1036.61
8.72831
1
1036.66
9.3681
1
1036.71
3.6229
1
1036.76
3.03928
1
1036.81
3.17743
1
1036.86
4.20203
1
1036.91
1.47699
1
1036.96
6.18683
1
1037.01
9.76206
1
1037.06
7.32739
1
1037.11
5.90447
1
1037.16
5.52773
1
1037.21
5.99246
1
1037.26
1.44937
1
1037.31
3.90965
1
1037.36
6.36227
1
1037.41
5.08157
1
1037.46
4.98903
1
1037.51
6.53262
1
1037.56
7.41351
1
1037.61
6.63376
1
1037.66
5.79297
1
1037.71
4.39155
1
1037.76
4.02456
1
1037.81
0.0817091
1
1037.86
-1.30378
1
1037.91
-0.488158
1
1037.96
2.33727
1
1038.01
3.97329
1
1038.06
0.00398757
1
1038.11
1.92559
1
1038.16
7.03095
1
1038.21
5.79007
1
1038.26
2.50004
1
1038.31
2.19749
1
1038.36
0.677344
1
1038.41
-0.0809204
1
1038.46
1.75695
1
1038.51
4.7773
1
1038.56
4.94552
1
1038.61
8.75129
1
1038.66
8.18276
1
1038.71
3.21884
1
1038.76
0.187503
1
1038.81
-1.35327
1
1038.86
2.13401
1
1038.91
-1.81348
1
1038.96
0.645525
1
1039.01
1.8464
1
1039.06
-1.18018
1
1039.11
3.18172
1
1039.16
5.59011
1
1039.21
1.00807
1
1039.26
-1.82137
1
1039.31
0
1
1039.36
0
1
1039.41
0
1
1039.46
0
1
1039.51
0
1
1039.56
0
1
1039.61
0
1
1039.66
0
1
1039.71
0
1
1039.76
0
1
1039.81
0
1
1039.86
0
1
1039.91
0
1
1039.96
0
1
1040.01
0
1
1040.06
0
1
1040.11
0
1
1040.16
0
1
1040.21
0
1
1040.26
0
1
1040.31
0
1
1040.36
0
1
1040.41
0
1
1040.46
0
1
1040.51
0
1
1040.56
0
1
1040.61
0
1
Ti2p
Ti2O3 fit
0
0
0
0
0
0
0
14
Casa Info Follows
0
0
1
CASA region (*Ti 2p*) (*Min Limits*) 987.96 1039.26 7.7123335 2 0 0 0 -1643 0 0 (*Ti 2p*) 47.8784 0 7.81
1
CASA comp (*Ti2O3*) (*&TI2O3*) Area 0.99917178 1e-020 472189.94 -1 1 MFWHM 1 1 1 -1 1 Position 1012.9114 1012.6114 1013.2114 -1 1 RSF 7.71233 MASS 47.8784 INDEX 2 (*Ti2O3*) CONST (**) UNCORRECTEDRSF 7.81

PCA Coefs = 179186, -26548.4, -22890.8, 3691.07, -1602.46, -1706.5, 
C:\Users\Mark\ownCloud\Muelheim Group\Projects\TiO2\analyzed data\EX209_CEC303 Ti slow oxidation - curated - irregular.vms
c:\users\mark\owncloud\muelheim group\projects\tio2\analyzed data\experiment 2019-03-28_ti sheet_cec-1303 - vector analysis.vms
C:\Users\pielsticker\Downloads\Ti\EX209_CEC303 Ti slow oxidation - vectro fit - irregular.vms
CasaXP2
C:\Users\pielsticker\Downloads\Ti\references_irregular.vms
XPS
1e+037
Al
1486.61
1e+037
1e+037
1e+037
1e+037
1e+037
FAT
1e+037
1e+037
1e+037
1e+037
1e+037
1e+037
1e+037
1e+037
Ti
2p
-1
3
Kinetic Energy
eV
Intensity
d
transmission
d
pulse counting
1
1
1e+037
1e+037
1e+037
1e+037
3
MFP Exponent
d
0
ESCAPE DEPTH TYPE
d
1
PROPAGATION_CONVERGED
d
1
2406
0
1
0
1
0
1
986.61
0
1
986.71
0
1
986.81
0
1
986.91
0
1
987.01
0
1
987.11
2534.66
1
987.21
2537.49
1
987.31
2540.32
1
987.41
2543.17
1
987.51
2546.02
1
987.61
2548.86
1
987.71
2551.71
1
987.81
2554.57
1
987.91
2557.43
1
988.01
2560.29
1
988.11
2563.15
1
988.21
2566.02
1
988.31
2568.89
1
988.41
2571.77
1
988.51
2574.65
1
988.61
2577.53
1
988.71
2580.42
1
988.81
2583.31
1
988.91
2586.21
1
989.01
2589.1
1
989.11
2592.01
1
989.21
2594.92
1
989.31
2597.83
1
989.41
2600.73
1
989.51
2603.65
1
989.61
2606.58
1
989.71
2609.5
1
989.81
2612.43
1
989.91
2615.4
1
990.01
2618.6
1
990.11
2621.8
1
990.21
2625
1
990.31
2628.21
1
990.41
2631.42
1
990.51
2634.65
1
990.61
2637.87
1
990.71
2641.09
1
990.81
2644.32
1
990.91
2647.56
1
991.01
2650.81
1
991.11
2654.05
1
991.21
2657.29
1
991.31
2660.55
1
991.41
2663.82
1
991.51
2667.08
1
991.61
2670.34
1
991.71
2673.62
1
991.81
2676.9
1
991.91
2680.19
1
992.01
2683.47
1
992.11
2686.76
1
992.21
2690.07
1
992.31
2693.38
1
992.41
2696.69
1
992.51
2699.99
1
992.61
2703.32
1
992.71
2706.66
1
992.81
2709.99
1
992.91
2713.33
1
993.01
2716.67
1
993.11
2720.03
1
993.21
2723.39
1
993.31
2726.96
1
993.41
2730.67
1
993.51
2734.4
1
993.61
2738.13
1
993.71
2741.86
1
993.81
2745.59
1
993.91
2749.35
1
994.01
2753.1
1
994.11
2756.86
1
994.21
2760.62
1
994.31
2764.39
1
994.41
2768.17
1
994.51
2771.96
1
994.61
2775.74
1
994.71
2779.53
1
994.81
2783.35
1
994.91
2787.17
1
995.01
2790.99
1
995.11
2794.8
1
995.21
2798.64
1
995.31
2802.49
1
995.41
2806.34
1
995.51
2810.19
1
995.61
2814.04
1
995.71
2817.92
1
995.81
2821.8
1
995.91
2825.68
1
996.01
2829.55
1
996.11
2833.46
1
996.21
2837.37
1
996.31
2841.28
1
996.41
2845.19
1
996.51
2849.12
1
996.61
2853.09
1
996.71
2857.46
1
996.81
2861.84
1
996.91
2866.23
1
997.01
2870.65
1
997.11
2875.06
1
997.21
2879.48
1
997.31
2883.9
1
997.41
2888.34
1
997.51
2892.79
1
997.61
2897.24
1
997.71
2901.69
1
997.81
2906.16
1
997.91
2910.65
1
998.01
2915.13
1
998.11
2919.62
1
998.21
2924.11
1
998.31
2926.65
1
998.41
2931.18
1
998.51
2935.73
1
998.61
2940.28
1
998.71
2944.89
1
998.81
2949.51
1
998.91
2954.15
1
999.01
2958.8
1
999.11
2963.5
1
999.21
2968.22
1
999.31
2972.97
1
999.41
2977.73
1
999.51
2982.5
1
999.61
2987.33
1
999.71
2992.17
1
999.81
2997.02
1
999.91
3001.89
1
1000.01
3006.8
1
1000.11
3011.74
1
1000.21
3016.69
1
1000.31
3021.66
1
1000.41
3026.65
1
1000.51
3031.69
1
1000.61
3036.74
1
1000.71
3041.8
1
1000.81
3046.88
1
1000.91
3052.02
1
1001.01
3057.17
1
1001.11
3062.33
1
1001.21
3067.52
1
1001.31
3072.75
1
1001.41
3078.01
1
1001.51
3083.29
1
1001.61
3088.58
1
1001.71
3093.9
1
1001.81
3099.26
1
1001.91
3104.64
1
1002.01
3110.03
1
1002.11
3115.44
1
1002.21
3120.89
1
1002.31
3126.36
1
1002.41
3131.85
1
1002.51
3137.36
1
1002.61
3142.9
1
1002.71
3148.46
1
1002.81
3154.05
1
1002.91
3159.64
1
1003.01
3165.27
1
1003.11
3170.93
1
1003.21
3176.6
1
1003.31
3182.29
1
1003.41
3188.03
1
1003.51
3193.8
1
1003.61
3199.59
1
1003.71
3205.4
1
1003.81
3211.23
1
1003.91
3217.08
1
1004.01
3222.96
1
1004.11
3228.85
1
1004.21
3234.76
1
1004.31
3240.69
1
1004.41
3246.65
1
1004.51
3252.63
1
1004.61
3258.62
1
1004.71
3264.63
1
1004.81
3270.66
1
1004.91
3276.72
1
1005.01
3282.79
1
1005.11
3288.87
1
1005.21
3294.97
1
1005.31
3301.09
1
1005.41
3307.23
1
1005.51
3313.4
1
1005.61
3319.62
1
1005.71
3325.85
1
1005.81
3332.09
1
1005.91
3338.35
1
1006.01
3344.63
1
1006.11
3350.92
1
1006.21
3357.21
1
1006.31
3363.53
1
1006.41
3369.85
1
1006.51
3376.19
1
1006.61
3382.36
1
1006.71
3388.72
1
1006.81
3395.09
1
1006.91
3401.48
1
1007.01
3407.85
1
1007.11
3414.25
1
1007.21
3420.66
1
1007.31
3427.09
1
1007.41
3433.51
1
1007.51
3439.92
1
1007.61
3446.36
1
1007.71
3452.82
1
1007.81
3459.27
1
1007.91
3465.69
1
1008.01
3472.13
1
1008.11
3478.59
1
1008.21
3485.07
1
1008.31
3491.48
1
1008.41
3497.9
1
1008.51
3504.34
1
1008.61
3510.8
1
1008.71
3517.21
1
1008.81
3523.58
1
1008.91
3529.97
1
1009.01
3536.38
1
1009.11
3542.78
1
1009.21
3549.05
1
1009.31
3555.35
1
1009.41
3561.67
1
1009.51
3568.02
1
1009.61
3574.18
1
1009.71
3580.33
1
1009.81
3586.51
1
1009.91
3592.71
1
1010.01
3598.78
1
1010.11
3604.71
1
1010.21
3610.67
1
1010.31
3616.66
1
1010.41
3622.61
1
1010.51
3628.23
1
1010.61
3633.89
1
1010.71
3639.57
1
1010.81
3645.28
1
1010.91
3650.59
1
1011.01
3655.82
1
1011.11
3661.07
1
1011.21
3666.36
1
1011.31
3671.39
1
1011.41
3676.05
1
1011.51
3680.74
1
1011.61
3685.47
1
1011.71
3690.17
1
1011.81
3694.09
1
1011.91
3698.04
1
1012.01
3702.04
1
1012.11
3706.07
1
1012.21
3709.35
1
1012.31
3712.37
1
1012.41
3715.43
1
1012.51
3718.54
1
1012.61
3721.21
1
1012.71
3723.06
1
1012.81
3724.96
1
1012.91
3726.92
1
1013.01
3728.93
1
1013.11
3729.37
1
1013.21
3729.87
1
1013.31
3730.44
1
1013.41
3731.07
1
1013.51
3730.56
1
1013.61
3729.43
1
1013.71
3728.37
1
1013.81
3727.39
1
1013.91
3725.88
1
1014.01
3722.88
1
1014.11
3719.97
1
1014.21
3717.16
1
1014.31
3714.45
1
1014.41
3709.61
1
1014.51
3704.68
1
1014.61
3699.88
1
1014.71
3695.2
1
1014.81
3689.16
1
1014.91
3682.1
1
1015.01
3675.2
1
1015.11
3668.45
1
1015.21
3661.3
1
1015.31
3652.12
1
1015.41
3643.14
1
1015.51
3634.37
1
1015.61
3625.84
1
1015.61
3625.84
1
1015.66
3620.66
1
1015.71
3615.11
1
1015.71
3615.11
1
1015.76
3609.62
1
1015.81
3604.19
1
1015.81
3604.19
1
1015.86
3598.85
1
1015.91
3593.58
1
1015.91
3593.58
1
1015.96
3588.38
1
1016.01
3583.28
1
1016.01
3583.28
1
1016.06
3578.25
1
1016.11
3571.92
1
1016.11
3571.92
1
1016.16
3565.64
1
1016.21
3559.45
1
1016.21
3559.45
1
1016.26
3553.38
1
1016.31
3547.41
1
1016.31
3547.41
1
1016.36
3541.56
1
1016.41
3535.81
1
1016.41
3535.81
1
1016.46
3530.19
1
1016.51
3524.34
1
1016.51
3524.34
1
1016.56
3517.6
1
1016.61
3511.01
1
1016.61
3511.01
1
1016.66
3504.55
1
1016.71
3498.24
1
1016.76
3492.09
1
1016.81
3486.1
1
1016.86
3480.28
1
1016.91
3474.63
1
1016.96
3468.5
1
1017.01
3461.97
1
1017.06
3455.65
1
1017.11
3449.55
1
1017.16
3443.66
1
1017.21
3438.03
1
1017.26
3432.65
1
1017.31
3427.55
1
1017.36
3422.73
1
1017.41
3417.27
1
1017.46
3411.93
1
1017.51
3406.89
1
1017.56
3402.17
1
1017.61
3397.8
1
1017.66
3393.78
1
1017.71
3390.14
1
1017.76
3386.89
1
1017.81
3383.95
1
1017.86
3380.66
1
1017.91
3377.82
1
1017.96
3375.46
1
1018.01
3373.58
1
1018.06
3372.22
1
1018.11
3371.39
1
1018.16
3371.11
1
1018.21
3371.43
1
1018.26
3372.1
1
1018.31
3373
1
1018.36
3374.57
1
1018.41
3376.8
1
1018.46
3379.75
1
1018.51
3383.45
1
1018.56
3387.95
1
1018.61
3393.25
1
1018.66
3399.36
1
1018.71
3406.04
1
1018.76
3413.45
1
1018.81
3421.76
1
1018.86
3431.01
1
1018.91
3441.2
1
1018.96
3452.41
1
1019.01
3464.61
1
1019.06
3477.86
1
1019.11
3492.19
1
1019.16
3507.44
1
1019.21
3523.9
1
1019.26
3541.56
1
1019.31
3560.42
1
1019.36
3580.48
1
1019.41
3601.75
1
1019.46
3624.26
1
1019.51
3648.01
1
1019.56
3673.04
1
1019.61
3699.4
1
1019.66
3727.03
1
1019.71
3755.98
1
1019.76
3786.21
1
1019.81
3817.74
1
1019.86
3850.68
1
1019.91
3884.92
1
1019.96
3920.46
1
1020.01
3957.41
1
1020.06
3995.78
1
1020.11
4035.38
1
1020.16
4076.21
1
1020.21
4118.22
1
1020.26
4161.53
1
1020.31
4206.02
1
1020.36
4251.59
1
1020.41
4298.2
1
1020.46
4346.19
1
1020.51
4395.27
1
1020.56
4445.24
1
1020.61
4496.01
1
1020.66
4547.51
1
1020.71
4599.65
1
1020.76
4651.63
1
1020.81
4704.83
1
1020.86
4758.52
1
1020.91
4813.16
1
1020.96
4868.01
1
1021.01
4923.03
1
1021.06
4978.03
1
1021.11
5032.97
1
1021.16
5087.71
1
1021.21
5142.11
1
1021.26
5196.1
1
1021.31
5249.77
1
1021.36
5303.31
1
1021.41
5356.04
1
1021.46
5407.82
1
1021.51
5458.61
1
1021.56
5508.13
1
1021.61
5556.41
1
1021.66
5603.24
1
1021.71
5648.51
1
1021.76
5692.75
1
1021.81
5735.41
1
1021.86
5776.08
1
1021.91
5814.66
1
1021.96
5851.07
1
1022.01
5885.27
1
1022.06
5916.99
1
1022.11
5946.31
1
1022.16
5973
1
1022.21
5997.95
1
1022.26
6020.28
1
1022.31
6039.67
1
1022.36
6056.29
1
1022.41
6069.86
1
1022.46
6080.45
1
1022.51
6087.81
1
1022.56
6091.92
1
1022.61
6093.25
1
1022.66
6092.13
1
1022.71
6087.92
1
1022.76
6080.6
1
1022.81
6070.03
1
1022.86
6056.48
1
1022.91
6039.72
1
1022.96
6019.98
1
1023.01
5997.27
1
1023.06
5972.05
1
1023.11
5944.62
1
1023.16
5914.08
1
1023.21
5880.87
1
1023.26
5845.08
1
1023.31
5806.76
1
1023.36
5766.23
1
1023.41
5723.32
1
1023.46
5678.44
1
1023.51
5632.41
1
1023.56
5584.79
1
1023.61
5535.69
1
1023.66
5484.99
1
1023.71
5433.15
1
1023.76
5380.23
1
1023.81
5326.34
1
1023.86
5271.83
1
1023.91
5216.77
1
1023.96
5162.51
1
1024.01
5108.2
1
1024.06
5054.09
1
1024.11
5000.49
1
1024.16
4947.42
1
1024.21
4895.34
1
1024.26
4844.33
1
1024.31
4794.67
1
1024.36
4746.97
1
1024.41
4701.6
1
1024.46
4658.34
1
1024.51
4617.33
1
1024.56
4578.85
1
1024.61
4543.15
1
1024.66
4510.37
1
1024.71
4480.83
1
1024.76
4454.66
1
1024.81
4432.65
1
1024.86
4414.77
1
1024.91
4400.88
1
1024.96
4391.18
1
1025.01
4385.83
1
1025.06
4385.02
1
1025.11
4388.87
1
1025.16
4397.65
1
1025.21
4411.38
1
1025.26
4430.93
1
1025.31
4455.73
1
1025.36
4485.79
1
1025.41
4521.23
1
1025.46
4562.05
1
1025.51
4608.35
1
1025.56
4660.11
1
1025.61
4717.33
1
1025.66
4780.21
1
1025.71
4849.05
1
1025.76
4923.35
1
1025.81
5003.01
1
1025.86
5087.93
1
1025.91
5178.01
1
1025.96
5273
1
1026.01
5372.92
1
1026.06
5477.43
1
1026.11
5586.72
1
1026.16
5700.64
1
1026.21
5818.49
1
1026.26
5940.2
1
1026.31
6065.31
1
1026.36
6193.61
1
1026.41
6324.81
1
1026.46
6458.48
1
1026.51
6594.51
1
1026.56
6732.71
1
1026.61
6872.49
1
1026.66
7013.32
1
1026.71
7154.68
1
1026.76
7296.37
1
1026.81
7437.73
1
1026.86
7578.44
1
1026.91
7718.05
1
1026.96
7856.03
1
1027.01
7992.59
1
1027.06
8126.58
1
1027.11
8257.69
1
1027.16
8385.44
1
1027.21
8509.3
1
1027.26
8628.95
1
1027.31
8743.8
1
1027.36
8853.55
1
1027.41
8957.88
1
1027.46
9056.52
1
1027.51
9148.9
1
1027.56
9234.5
1
1027.61
9313.1
1
1027.66
9384.3
1
1027.71
9447.8
1
1027.76
9503.41
1
1027.81
9550.78
1
1027.86
9590.02
1
1027.91
9620.76
1
1027.96
9642.69
1
1028.01
9655.72
1
1028.06
9659.65
1
1028.11
9654.5
1
1028.16
9640.16
1
1028.21
9616.61
1
1028.26
9583.92
1
1028.31
9542.38
1
1028.36
9491.87
1
1028.41
9432.38
1
1028.46
9364.1
1
1028.51
9287.19
1
1028.56
9201.79
1
1028.61
9108.21
1
1028.66
9006.6
1
1028.71
8897.33
1
1028.76
8780.91
1
1028.81
8657.33
1
1028.86
8527.02
1
1028.91
8390.24
1
1028.96
8247.41
1
1029.01
8098.89
1
1029.06
7945.05
1
1029.11
7786.37
1
1029.16
7623.31
1
1029.21
7456.33
1
1029.26
7285.73
1
1029.31
7111.88
1
1029.36
6935.27
1
1029.41
6756.28
1
1029.46
6575.34
1
1029.51
6392.88
1
1029.56
6209.28
1
1029.61
6025.16
1
1029.66
5840.77
1
1029.71
5656.43
1
1029.76
5472.53
1
1029.81
5289.4
1
1029.86
5107.42
1
1029.91
4926.87
1
1029.96
4748.1
1
1030.01
4571.38
1
1030.06
4397.2
1
1030.11
4225.62
1
1030.16
4056.86
1
1030.21
3891.17
1
1030.26
3728.74
1
1030.31
3569.74
1
1030.36
3414.36
1
1030.41
3262.73
1
1030.46
3115.04
1
1030.51
2971.48
1
1030.56
2832
1
1030.61
2696.69
1
1030.66
2565.6
1
1030.71
2438.78
1
1030.76
2316.25
1
1030.81
2198.03
1
1030.86
2084.12
1
1030.91
1974.59
1
1030.96
1869.4
1
1031.01
1768.44
1
1031.06
1671.65
1
1031.11
1579
1
1031.16
1490.4
1
1031.21
1405.79
1
1031.26
1325.07
1
1031.31
1248.16
1
1031.36
1175.09
1
1031.41
1105.65
1
1031.46
1039.72
1
1031.51
977.194
1
1031.56
917.957
1
1031.61
861.898
1
1031.66
808.897
1
1031.71
758.848
1
1031.76
711.643
1
1031.81
667.253
1
1031.86
625.461
1
1031.91
586.149
1
1031.96
549.212
1
1032.01
514.529
1
1032.06
481.996
1
1032.11
451.504
1
1032.16
422.945
1
1032.21
396.268
1
1032.26
371.378
1
1032.31
348.128
1
1032.36
326.423
1
1032.41
306.171
1
1032.46
287.293
1
1032.51
269.698
1
1032.56
253.312
1
1032.61
238.056
1
1032.66
223.92
1
1032.71
210.8
1
1032.76
198.602
1
1032.81
187.268
1
1032.86
176.736
1
1032.91
166.95
1
1032.96
157.86
1
1033.01
149.413
1
1033.06
141.566
1
1033.11
134.348
1
1033.16
127.642
1
1033.21
121.412
1
1033.26
115.618
1
1033.31
110.231
1
1033.36
105.216
1
1033.41
100.545
1
1033.46
96.1914
1
1033.51
92.1457
1
1033.56
88.4162
1
1033.61
84.9317
1
1033.66
81.6728
1
1033.71
78.6216
1
1033.76
75.7591
1
1033.81
73.0719
1
1033.86
70.5426
1
1033.91
68.1585
1
1033.96
65.9395
1
1034.01
63.8651
1
1034.06
61.9027
1
1034.11
60.0402
1
1034.16
58.2698
1
1034.21
56.5842
1
1034.26
54.975
1
1034.31
53.4391
1
1034.36
51.969
1
1034.41
50.6038
1
1034.46
49.3059
1
1034.51
48.0632
1
1034.56
46.8749
1
1034.61
45.7351
1
1034.66
44.6413
1
1034.71
43.5894
1
1034.76
42.5744
1
1034.81
41.6001
1
1034.86
40.6927
1
1034.91
39.8132
1
1034.96
38.9585
1
1035.01
38.1257
1
1035.06
37.3142
1
1035.11
36.5206
1
1035.16
35.7446
1
1035.21
34.9841
1
1035.26
34.2531
1
1035.31
33.5583
1
1035.36
32.8755
1
1035.41
32.2049
1
1035.46
31.5453
1
1035.51
30.8959
1
1035.56
30.2571
1
1035.61
29.627
1
1035.66
29.2777
1
1035.71
28.6764
1
1035.76
28.0885
1
1035.81
27.5043
1
1035.86
26.9227
1
1035.91
26.3449
1
1035.96
25.7699
1
1036.01
25.1978
1
1036.06
24.6291
1
1036.11
24.0629
1
1036.16
23.564
1
1036.21
23.098
1
1036.26
22.6347
1
1036.31
22.1745
1
1036.36
21.7165
1
1036.41
21.2618
1
1036.46
20.8093
1
1036.51
20.3594
1
1036.56
19.9186
1
1036.61
19.4983
1
1036.66
19.0809
1
1036.71
18.6655
1
1036.76
18.2524
1
1036.81
17.8418
1
1036.86
17.4331
1
1036.91
17.0271
1
1036.96
16.6229
1
1037.01
16.2326
1
1037.06
15.8546
1
1037.11
15.4784
1
1037.16
15.1207
1
1037.21
14.7727
1
1037.26
14.4268
1
1037.31
14.0829
1
1037.36
13.7406
1
1037.41
13.4005
1
1037.46
13.0777
1
1037.51
12.7601
1
1037.56
12.4444
1
1037.61
12.1301
1
1037.66
11.8179
1
1037.71
11.5072
1
1037.76
11.1983
1
1037.81
10.891
1
1037.86
10.5869
1
1037.91
10.2996
1
1037.96
10.0137
1
1038.01
9.72941
1
1038.06
9.44658
1
1038.11
9.16511
1
1038.16
8.894
1
1038.21
8.62657
1
1038.26
8.36072
1
1038.31
8.10193
1
1038.36
7.85343
1
1038.41
7.60653
1
1038.46
7.36073
1
1038.51
7.11642
1
1038.56
6.8733
1
1038.61
6.63138
1
1038.66
6.39085
1
1038.71
6.15134
1
1038.76
5.92198
1
1038.81
5.69796
1
1038.86
5.47508
1
1038.91
5.25347
1
1038.96
5.0328
1
1039.01
4.98139
1
1039.06
4.76187
1
1039.11
4.54273
1
1039.16
4.32925
1
1039.21
4.12757
1
1039.26
3.92698
1
1039.31
0
1
1039.36
0
1
1039.41
0
1
1039.46
0
1
1039.51
0
1
1039.56
0
1
1039.61
0
1
1039.66
0
1
1039.71
0
1
1039.76
0
1
1039.81
0
1
1039.86
0
1
1039.91
0
1
1039.96
0
1
1040.01
0
1
1040.06
0
1
1040.11
0
1
1040.16
0
1
1040.21
0
1
1040.26
0
1
1040.31
0
1
1040.36
0
1
1040.41
0
1
1040.46
0
1
1040.51
0
1
1040.56
0
1
1040.61
0
1
Ti2p
TiO2 fit
0
0
0
0
0
0
0
14
Casa Info Follows
0
0
1
CASA region (*Ti 2p*) (*Min Limits*) 987.96 1039.26 7.7123335 2 0 0 0 -1643 0 0 (*Ti 2p*) 47.8784 0 7.81
1
CASA comp (*TiO2*) (*&TIO2*) Area 1.0006404 1e-020 472189.94 -1 1 MFWHM 1 1 1 -1 1 Position 1012.0574 1011.7574 1012.3574 -1 1 RSF 7.71233 MASS 47.8784 INDEX 3 (*TiO2*) CONST (**) UNCORRECTEDRSF 7.81

PCA Coefs = 41279.5, -30.0911, 
CasaXP11_irregular-March172021151537
c:\users\mark\owncloud\muelheim group\projects\tio2\analyzed data\experiment 2019-03-28_ti sheet_cec-1303 - vector analysis.vms
C:\Users\pielsticker\Downloads\Ti\EX209_CEC303 Ti slow oxidation - vectro fit - irregular.vms
CasaXP2
C:\Users\pielsticker\Downloads\Ti\references_irregular.vms
XPS
1e+037
Al
1486.61
1e+037
1e+037
1e+037
1e+037
1e+037
FAT
1e+037
1e+037
1e+037
1e+037
1e+037
1e+037
1e+037
1e+037
Ti
2p
-1
3
Kinetic Energy
eV
Intensity
d
transmission
d
pulse counting
1
1
1e+037
1e+037
1e+037
1e+037
3
MFP Exponent
d
0
ESCAPE DEPTH TYPE
d
1
PROPAGATION_CONVERGED
d
1
2406
0
1
0
1
0
1
986.41
0
1
986.51
0
1
986.61
0
1
986.71
768.707
1
986.81
760.553
1
986.91
768.435
1
987.01
755.652
1
987.11
767.617
1
987.21
776.181
1
987.31
795.763
1
987.41
770.688
1
987.51
763.262
1
987.61
746.497
1
987.71
771.299
1
987.81
794.081
1
987.91
798.462
1
988.01
796.086
1
988.11
750.701
1
988.21
764.244
1
988.31
762.703
1
988.41
767.642
1
988.51
809.875
1
988.61
782.735
1
988.71
802.762
1
988.81
781.754
1
988.91
797.075
1
989.01
782.132
1
989.11
772.809
1
989.21
791.69
1
989.31
768.177
1
989.41
753.308
1
989.51
789.669
1
989.61
800.739
1
989.71
779.037
1
989.81
796.667
1
989.91
788.664
1
990.01
781.431
1
990.11
763.133
1
990.21
761.93
1
990.31
770.168
1
990.41
781.989
1
990.51
774.174
1
990.61
783.781
1
990.71
788.367
1
990.81
773.493
1
990.91
805.974
1
991.01
771.994
1
991.11
777.448
1
991.21
789.282
1
991.31
794.388
1
991.41
776.115
1
991.51
783.245
1
991.61
791.547
1
991.71
791.152
1
991.81
811.094
1
991.91
769.968
1
992.01
772.96
1
992.11
796.65
1
992.21
826.989
1
992.31
810.03
1
992.41
818.963
1
992.51
785.408
1
992.61
800.716
1
992.71
788.478
1
992.81
804.164
1
992.91
812.978
1
993.01
822.622
1
993.11
819.208
1
993.21
829.078
1
993.31
792.38
1
993.41
821.361
1
993.51
807.064
1
993.61
809.673
1
993.71
829.266
1
993.81
816.075
1
993.91
811.888
1
994.01
813.957
1
994.11
821.861
1
994.21
833.57
1
994.31
837.714
1
994.41
849.28
1
994.51
857.286
1
994.61
833.549
1
994.71
845.806
1
994.81
836.24
1
994.91
858.359
1
995.01
862.683
1
995.11
844.704
1
995.21
842.124
1
995.31
876.151
1
995.41
850.852
1
995.51
870.002
1
995.61
873.725
1
995.71
872.576
1
995.81
872.903
1
995.91
878.814
1
996.01
867.431
1
996.11
865.276
1
996.21
866.368
1
996.31
877.735
1
996.41
899.413
1
996.51
886.844
1
996.61
869.567
1
996.71
902.856
1
996.81
905.33
1
996.91
874.966
1
997.01
869.403
1
997.11
865.949
1
997.21
886.148
1
997.31
882.212
1
997.41
885.397
1
997.51
898.615
1
997.61
902.991
1
997.71
883.438
1
997.81
896.5
1
997.91
893.677
1
998.01
877.466
1
998.11
900.29
1
998.21
880.029
1
998.31
903.615
1
998.41
893.494
1
998.51
880.647
1
998.61
893.543
1
998.71
873.733
1
998.81
900.388
1
998.91
916.252
1
999.01
902.081
1
999.11
905.374
1
999.21
886.856
1
999.31
911.213
1
999.41
905.309
1
999.51
902.687
1
999.61
913.305
1
999.71
904.045
1
999.81
896.12
1
999.91
897.236
1
1000.01
923.679
1
1000.11
926.681
1
1000.21
926.073
1
1000.31
925.526
1
1000.41
907.704
1
1000.51
896.397
1
1000.61
910.067
1
1000.71
926.249
1
1000.81
920.429
1
1000.91
911.683
1
1001.01
929.617
1
1001.11
950.296
1
1001.21
954.222
1
1001.31
958.371
1
1001.41
948.537
1
1001.51
937.444
1
1001.61
926.521
1
1001.71
914.447
1
1001.81
938.226
1
1001.91
942.783
1
1002.01
945.337
1
1002.11
920.58
1
1002.21
939.262
1
1002.31
943.013
1
1002.41
943.763
1
1002.51
963.942
1
1002.61
929.992
1
1002.71
921.771
1
1002.81
946.545
1
1002.91
951.811
1
1003.01
971.317
1
1003.11
932.785
1
1003.21
938.39
1
1003.31
948.212
1
1003.41
955.917
1
1003.51
950.44
1
1003.61
933.546
1
1003.71
937.391
1
1003.81
934.345
1
1003.91
945.101
1
1004.01
931.364
1
1004.11
934.292
1
1004.21
938.488
1
1004.31
931.659
1
1004.41
941.812
1
1004.51
926.828
1
1004.61
935.58
1
1004.71
914.475
1
1004.81
926.205
1
1004.91
933.151
1
1005.01
894.257
1
1005.11
922.632
1
1005.21
947.099
1
1005.31
942.994
1
1005.41
962.008
1
1005.51
926.796
1
1005.61
950.836
1
1005.71
940.143
1
1005.81
956.34
1
1005.91
956.727
1
1006.01
975.317
1
1006.11
940.591
1
1006.21
947.456
1
1006.31
981.819
1
1006.41
970.555
1
1006.51
1008.37
1
1006.61
1008.11
1
1006.71
1013.6
1
1006.81
996.31
1
1006.91
1014.27
1
1007.01
987.97
1
1007.11
1015.57
1
1007.21
1041.04
1
1007.31
1024.19
1
1007.41
1046.25
1
1007.51
1080.99
1
1007.61
1052.36
1
1007.71
1079.45
1
1007.81
1069.35
1
1007.91
1086.71
1
1008.01
1099.49
1
1008.11
1098.97
1
1008.21
1082.77
1
1008.31
1103.98
1
1008.41
1124.29
1
1008.51
1094.43
1
1008.61
1092.18
1
1008.71
1119.73
1
1008.81
1111.18
1
1008.91
1100.64
1
1009.01
1074.02
1
1009.11
1081.55
1
1009.21
1084.81
1
1009.31
1072.29
1
1009.41
1064.08
1
1009.51
1068.03
1
1009.61
1042.68
1
1009.71
1048.27
1
1009.81
1047.75
1
1009.91
1041.99
1
1010.01
1032.26
1
1010.11
1010.81
1
1010.21
1010.5
1
1010.31
981.444
1
1010.41
994.358
1
1010.51
1016.22
1
1010.61
1023.54
1
1010.71
996.998
1
1010.81
986.877
1
1010.91
990.319
1
1011.01
977.67
1
1011.11
974.063
1
1011.21
990.486
1
1011.31
981.065
1
1011.41
994.019
1
1011.51
977.353
1
1011.61
990.329
1
1011.71
997.831
1
1011.81
976.829
1
1011.91
1023.17
1
1012.01
1048.11
1
1012.11
1057
1
1012.21
1054.53
1
1012.31
1056.94
1
1012.41
1065.11
1
1012.51
1098.57
1
1012.61
1081.96
1
1012.71
1088.82
1
1012.81
1090.24
1
1012.91
1110.64
1
1013.01
1156.04
1
1013.11
1154.69
1
1013.21
1149.48
1
1013.31
1178.23
1
1013.41
1206.08
1
1013.51
1235.84
1
1013.61
1212.04
1
1013.71
1236.37
1
1013.81
1260.29
1
1013.91
1227.79
1
1014.01
1267.25
1
1014.11
1278.21
1
1014.21
1301.9
1
1014.31
1268.86
1
1014.41
1282.91
1
1014.51
1257.63
1
1014.61
1268.26
1
1014.71
1240.09
1
1014.81
1212.45
1
1014.91
1218.87
1
1015.01
1192.01
1
1015.11
1171.19
1
1015.21
1155.17
1
1015.31
1122.54
1
1015.41
1101.79
1
1015.41
1067.41
1
1015.46
1052.35
1
1015.51
1067.29
1
1015.51
1059.44
1
1015.56
1042.15
1
1015.61
1030.58
1
1015.61
1039.02
1
1015.66
1026.23
1
1015.71
1052.82
1
1015.71
1026.07
1
1015.76
1013.77
1
1015.81
1016.71
1
1015.81
984.758
1
1015.86
1003.17
1
1015.91
978.853
1
1015.91
983.593
1
1015.96
992.657
1
1016.01
963.914
1
1016.01
997.976
1
1016.06
945.589
1
1016.11
962.513
1
1016.11
958.563
1
1016.16
978.607
1
1016.21
965.235
1
1016.21
925.061
1
1016.26
931.285
1
1016.31
950.873
1
1016.31
924.092
1
1016.36
914.095
1
1016.41
887.906
1
1016.41
924.448
1
1016.46
892.4
1
1016.51
887.492
1
1016.56
895.285
1
1016.61
879.719
1
1016.66
885.384
1
1016.71
879.291
1
1016.76
836.024
1
1016.81
856.757
1
1016.86
867.567
1
1016.91
879.182
1
1016.96
853.334
1
1017.01
840.365
1
1017.06
844.006
1
1017.11
838.737
1
1017.16
830.23
1
1017.21
813.429
1
1017.26
808.999
1
1017.31
819.672
1
1017.36
805.464
1
1017.41
810.392
1
1017.46
784.829
1
1017.51
797.662
1
1017.56
777.953
1
1017.61
778.964
1
1017.66
772.96
1
1017.71
800.196
1
1017.76
780.125
1
1017.81
749.445
1
1017.86
759.949
1
1017.91
760.85
1
1017.96
766.089
1
1018.01
761.03
1
1018.06
775.909
1
1018.11
783.447
1
1018.16
786.74
1
1018.21
764.45
1
1018.26
755.3
1
1018.31
777.982
1
1018.36
771.937
1
1018.41
777.032
1
1018.46
772.377
1
1018.51
741.676
1
1018.56
789.933
1
1018.61
762.665
1
1018.66
745.3
1
1018.71
752.13
1
1018.76
759.794
1
1018.81
774.162
1
1018.86
794.029
1
1018.91
786.274
1
1018.96
802.151
1
1019.01
783.227
1
1019.06
801.558
1
1019.11
787.6
1
1019.16
821.694
1
1019.21
830.725
1
1019.26
819.337
1
1019.31
865.198
1
1019.36
844.184
1
1019.41
845.633
1
1019.46
854.093
1
1019.51
863.046
1
1019.56
874.417
1
1019.61
913.775
1
1019.66
896.864
1
1019.71
925.225
1
1019.76
932.491
1
1019.81
971.033
1
1019.86
966.216
1
1019.91
972.082
1
1019.96
1029.16
1
1020.01
1031.97
1
1020.06
1049.6
1
1020.11
1079.9
1
1020.16
1095.11
1
1020.21
1142.77
1
1020.26
1185.78
1
1020.31
1234.21
1
1020.36
1275.05
1
1020.41
1301.29
1
1020.46
1354.89
1
1020.51
1402.01
1
1020.56
1465.91
1
1020.61
1505.27
1
1020.66
1542.42
1
1020.71
1564.52
1
1020.76
1643.28
1
1020.81
1699.57
1
1020.86
1778.37
1
1020.91
1802.46
1
1020.96
1858.86
1
1021.01
1969.59
1
1021.06
2010.58
1
1021.11
2061.9
1
1021.16
2155.96
1
1021.21
2171.67
1
1021.26
2266.3
1
1021.31
2257.47
1
1021.36
2311
1
1021.41
2367.68
1
1021.46
2426.42
1
1021.51
2451.52
1
1021.56
2486.56
1
1021.61
2485.79
1
1021.66
2516.09
1
1021.71
2550.8
1
1021.76
2526.8
1
1021.81
2501.27
1
1021.86
2536.75
1
1021.91
2497.04
1
1021.96
2492.25
1
1022.01
2489.07
1
1022.06
2395.72
1
1022.11
2401.55
1
1022.16
2346.97
1
1022.21
2306.04
1
1022.26
2289
1
1022.31
2227.36
1
1022.36
2153.49
1
1022.41
2067.64
1
1022.46
1998.69
1
1022.51
1950.63
1
1022.56
1902.71
1
1022.61
1827.21
1
1022.66
1728.78
1
1022.71
1672.22
1
1022.76
1609.68
1
1022.81
1578.01
1
1022.86
1559.44
1
1022.91
1434.8
1
1022.96
1366.92
1
1023.01
1348.1
1
1023.06
1290.44
1
1023.11
1235.91
1
1023.16
1223.03
1
1023.21
1158.64
1
1023.26
1156.28
1
1023.31
1128.58
1
1023.36
1089.29
1
1023.41
1032.33
1
1023.46
1023.36
1
1023.51
996.215
1
1023.56
948.428
1
1023.61
937.285
1
1023.66
924.02
1
1023.71
904.001
1
1023.76
911.682
1
1023.81
860.988
1
1023.86
840.295
1
1023.91
830.683
1
1023.96
806.105
1
1024.01
814.335
1
1024.06
797.877
1
1024.11
784.465
1
1024.16
798.57
1
1024.21
784.869
1
1024.26
780.672
1
1024.31
778.737
1
1024.36
761.738
1
1024.41
758.673
1
1024.46
741.007
1
1024.51
751.087
1
1024.56
759.106
1
1024.61
748.745
1
1024.66
740.552
1
1024.71
748.907
1
1024.76
754.767
1
1024.81
759.631
1
1024.86
754.448
1
1024.91
746.531
1
1024.96
762.516
1
1025.01
778.526
1
1025.06
758.886
1
1025.11
759.716
1
1025.16
770.626
1
1025.21
777.027
1
1025.26
784.108
1
1025.31
786.215
1
1025.36
784.578
1
1025.41
791.529
1
1025.46
817.551
1
1025.51
813.631
1
1025.56
831.026
1
1025.61
823.737
1
1025.66
843.837
1
1025.71
847.126
1
1025.76
845.529
1
1025.81
871.589
1
1025.86
897.405
1
1025.91
931.456
1
1025.96
943.584
1
1026.01
975.757
1
1026.06
1029.64
1
1026.11
1058.22
1
1026.16
1123.13
1
1026.21
1166.62
1
1026.26
1235.35
1
1026.31
1291.99
1
1026.36
1404.8
1
1026.41
1511.6
1
1026.46
1620.58
1
1026.51
1744.35
1
1026.56
1887.18
1
1026.61
2048.32
1
1026.66
2250.15
1
1026.71
2474.29
1
1026.76
2792.44
1
1026.81
3041.37
1
1026.86
3301.67
1
1026.91
3616.82
1
1026.96
3968.96
1
1027.01
4302.5
1
1027.06
4599.79
1
1027.11
4948.24
1
1027.16
5336.66
1
1027.21
5592.03
1
1027.26
5891.08
1
1027.31
6117.37
1
1027.36
6401.69
1
1027.41
6544.88
1
1027.46
6616.65
1
1027.51
6705.58
1
1027.56
6693.94
1
1027.61
6634.5
1
1027.66
6522.28
1
1027.71
6363.31
1
1027.76
6104.02
1
1027.81
5828.6
1
1027.86
5495.3
1
1027.91
5100.96
1
1027.96
4818.28
1
1028.01
4440.83
1
1028.06
4085.26
1
1028.11
3670.51
1
1028.16
3341.96
1
1028.21
2989.35
1
1028.26
2685.24
1
1028.31
2373.67
1
1028.36
2111.04
1
1028.41
1882.81
1
1028.46
1636.92
1
1028.51
1449.51
1
1028.56
1278.47
1
1028.61
1138.66
1
1028.66
1008.49
1
1028.71
880.955
1
1028.76
784.214
1
1028.81
710.739
1
1028.86
639.553
1
1028.91
593.143
1
1028.96
528.411
1
1029.01
493.952
1
1029.06
460.395
1
1029.11
430.007
1
1029.16
407.676
1
1029.21
375.74
1
1029.26
349.579
1
1029.31
307.498
1
1029.36
298.685
1
1029.41
289.607
1
1029.46
274.535
1
1029.51
261.454
1
1029.56
258.402
1
1029.61
241.45
1
1029.66
226.133
1
1029.71
195.994
1
1029.76
196.912
1
1029.81
178.111
1
1029.86
182.602
1
1029.91
171.642
1
1029.96
139.931
1
1030.01
148.703
1
1030.06
140.236
1
1030.11
122.799
1
1030.16
127.547
1
1030.21
123.658
1
1030.26
117.159
1
1030.31
113.168
1
1030.36
103.043
1
1030.41
89.9611
1
1030.46
79.7678
1
1030.51
82.6402
1
1030.56
78.3794
1
1030.61
71.4293
1
1030.66
76.4138
1
1030.71
75.3822
1
1030.76
78.9603
1
1030.81
65.8195
1
1030.86
59.9979
1
1030.91
53.6695
1
1030.96
50.609
1
1031.01
45.9551
1
1031.06
58.2979
1
1031.11
45.7672
1
1031.16
45.6667
1
1031.21
37.6953
1
1031.26
34.8926
1
1031.31
45.1279
1
1031.36
38.4188
1
1031.41
43.102
1
1031.46
41.5193
1
1031.51
41.8022
1
1031.56
37.3304
1
1031.61
34.3535
1
1031.66
38.0149
1
1031.71
41.0285
1
1031.76
38.7568
1
1031.81
24.1728
1
1031.86
26.7467
1
1031.91
24.8709
1
1031.96
25.2497
1
1032.01
30.3581
1
1032.06
32.8652
1
1032.11
26.7379
1
1032.16
17.5069
1
1032.21
27.4104
1
1032.26
31.9776
1
1032.31
35.0028
1
1032.36
28.3184
1
1032.41
18.7488
1
1032.46
16.2122
1
1032.51
31.8477
1
1032.56
28.849
1
1032.61
28.1205
1
1032.66
19.5003
1
1032.71
22.1481
1
1032.76
14.6862
1
1032.81
23.383
1
1032.86
23.817
1
1032.91
18.631
1
1032.96
16.5573
1
1033.01
12.2888
1
1033.06
14.5476
1
1033.11
16.5876
1
1033.16
14.5942
1
1033.21
13.8555
1
1033.26
14.5433
1
1033.31
7.00553
1
1033.36
19.7495
1
1033.41
9.75463
1
1033.46
16.6813
1
1033.51
10.5411
1
1033.56
11.4887
1
1033.61
9.85089
1
1033.66
21.479
1
1033.71
15.0159
1
1033.76
22.6288
1
1033.81
16.9822
1
1033.86
17.9488
1
1033.91
10.2562
1
1033.96
17.5299
1
1034.01
14.6918
1
1034.06
18.5697
1
1034.11
18.4523
1
1034.16
17.5792
1
1034.21
20.0307
1
1034.26
24.9494
1
1034.31
12.6893
1
1034.36
7.72395
1
1034.41
4.38198
1
1034.46
6.31105
1
1034.51
13.7239
1
1034.56
19.994
1
1034.61
12.7116
1
1034.66
10.1567
1
1034.71
12.2761
1
1034.76
14.2381
1
1034.81
4.75145
1
1034.86
-0.0982386
1
1034.91
11.4553
1
1034.96
8.98422
1
1035.01
19.1661
1
1035.06
11.0729
1
1035.11
14.8176
1
1035.16
14.128
1
1035.21
12.2612
1
1035.26
12.6718
1
1035.31
13.668
1
1035.36
5.73352
1
1035.41
6.80692
1
1035.46
6.00817
1
1035.51
3.57823
1
1035.56
6.26545
1
1035.61
10.8517
1
1035.66
8.11417
1
1035.71
8.48454
1
1035.76
6.19727
1
1035.81
9.99754
1
1035.86
-0.595702
1
1035.91
3.32511
1
1035.96
2.16431
1
1036.01
5.30515
1
1036.06
6.33019
1
1036.11
-0.15255
1
1036.16
-0.160988
1
1036.21
4.10473
1
1036.26
-1.07666
1
1036.31
1.58446
1
1036.36
-0.212021
1
1036.41
12.2091
1
1036.46
6.92326
1
1036.51
14.8672
1
1036.56
6.40831
1
1036.61
4.71866
1
1036.66
7.10513
1
1036.71
9.98924
1
1036.76
1.929
1
1036.81
6.98157
1
1036.86
3.66599
1
1036.91
8.02528
1
1036.96
-0.623079
1
1037.01
-3.58963
1
1037.06
-4.89371
1
1037.11
3.92434
1
1037.16
8.29572
1
1037.21
8.52046
1
1037.26
10.3075
1
1037.31
6.96935
1
1037.36
-0.523693
1
1037.41
-6.73835
1
1037.46
1.34514
1
1037.51
4.97275
1
1037.56
1.15262
1
1037.61
-2.7992
1
1037.66
9.64657
1
1037.71
5.40891
1
1037.76
6.80002
1
1037.81
-3.69174
1
1037.86
4.72394
1
1037.91
2.41516
1
1037.96
2.16941
1
1038.01
3.25827
1
1038.06
6.17699
1
1038.11
-0.126762
1
1038.16
9.74501
1
1038.21
2.44671
1
1038.26
13.5869
1
1038.31
0.257914
1
1038.36
2.84957
1
1038.41
3.89457
1
1038.46
-3.92537
1
1038.51
-5.8306
1
1038.56
-1.07815
1
1038.61
4.5545
1
1038.66
9.49284
1
1038.71
0.264434
1
1038.76
1.19787
1
1038.81
1.67889
1
1038.86
-0.411538
1
1038.91
3.29361
1
1038.96
3.60995
1
1039.01
7.03935
1
1039.06
2.46095
1
1039.11
3.16899
1
1039.16
-3.42998
1
1039.21
7.20019
1
1039.26
-6.66532
1
1039.31
-2.25084
1
1039.36
0.0238542
1
1039.41
-2.53558
1
1039.46
1.21449
1
1039.51
-4.11686
1
1039.56
0.731545
1
1039.61
2.61504
1
1039.66
-1.29684
1
1039.71
-3.20836
1
1039.76
7.83649
1
1039.81
4.38263
1
1039.86
6.31627
1
1039.91
6.05281
1
1039.96
4.76111
1
1040.01
3.3128
1
1040.06
7.77774
1
1040.11
1.48788
1
1040.16
7.11285
1
1040.21
2.66528
1
1040.26
0.887167
1
1040.31
2.751
1
1040.36
-10.7387
1
1040.41
0
1
end of experiment
